[nm];[A];
;Probe 1;
350,00;0,3177
350,50;0,3211
351,00;0,3249
351,50;0,3285
352,00;0,3316
352,50;0,3355
353,00;0,3393
353,50;0,3432
354,00;0,3475
354,50;0,3512
355,00;0,3552
355,50;0,3592
356,00;0,3636
356,50;0,3675
357,00;0,3719
357,50;0,3760
358,00;0,3805
358,50;0,3846
359,00;0,3890
359,50;0,3935
360,00;0,3979
360,50;0,4025
361,00;0,4073
361,50;0,4112
362,00;0,4161
362,50;0,4210
363,00;0,4254
363,50;0,4302
364,00;0,4351
364,50;0,4400
365,00;0,4446
365,50;0,4495
366,00;0,4543
366,50;0,4596
367,00;0,4643
367,50;0,4697
368,00;0,4750
368,50;0,4800
369,00;0,4855
369,50;0,4909
370,00;0,4964
370,50;0,5025
371,00;0,5082
371,50;0,5141
372,00;0,5193
372,50;0,5254
373,00;0,5316
373,50;0,5376
374,00;0,5442
374,50;0,5505
375,00;0,5572
375,50;0,5638
376,00;0,5705
376,50;0,5770
377,00;0,5840
377,50;0,5911
378,00;0,5985
378,50;0,6056
379,00;0,6132
379,50;0,6210
380,00;0,6288
380,50;0,6368
381,00;0,6451
381,50;0,6535
382,00;0,6621
382,50;0,6713
383,00;0,6798
383,50;0,6889
384,00;0,6984
384,50;0,7073
385,00;0,7169
385,50;0,7263
386,00;0,7361
386,50;0,7455
387,00;0,7553
387,50;0,7654
388,00;0,7755
388,50;0,7849
389,00;0,7948
389,50;0,8046
390,00;0,8142
390,50;0,8233
391,00;0,8331
391,50;0,8422
392,00;0,8508
392,50;0,8597
393,00;0,8683
393,50;0,8764
394,00;0,8841
394,50;0,8914
395,00;0,8985
395,50;0,9054
396,00;0,9112
396,50;0,9169
397,00;0,9217
397,50;0,9264
398,00;0,9304
398,50;0,9333
399,00;0,9358
399,50;0,9380
400,00;0,9385
400,50;0,9396
401,00;0,9393
401,50;0,9386
402,00;0,9373
402,50;0,9350
403,00;0,9326
403,50;0,9291
404,00;0,9253
404,50;0,9210
405,00;0,9161
405,50;0,9108
406,00;0,9053
406,50;0,8991
407,00;0,8924
407,50;0,8858
408,00;0,8792
408,50;0,8717
409,00;0,8645
409,50;0,8567
410,00;0,8495
410,50;0,8415
411,00;0,8338
411,50;0,8258
412,00;0,8180
412,50;0,8100
413,00;0,8020
413,50;0,7941
414,00;0,7862
414,50;0,7780
415,00;0,7703
415,50;0,7622
416,00;0,7544
416,50;0,7462
417,00;0,7382
417,50;0,7303
418,00;0,7226
418,50;0,7145
419,00;0,7069
419,50;0,6990
420,00;0,6911
420,50;0,6832
421,00;0,6755
421,50;0,6677
422,00;0,6602
422,50;0,6526
423,00;0,6449
423,50;0,6373
424,00;0,6300
424,50;0,6227
425,00;0,6155
425,50;0,6083
426,00;0,6012
426,50;0,5944
427,00;0,5878
427,50;0,5812
428,00;0,5748
428,50;0,5685
429,00;0,5623
429,50;0,5564
430,00;0,5506
430,50;0,5448
431,00;0,5394
431,50;0,5338
432,00;0,5287
432,50;0,5236
433,00;0,5188
433,50;0,5140
434,00;0,5096
434,50;0,5052
435,00;0,5009
435,50;0,4967
436,00;0,4929
436,50;0,4890
437,00;0,4852
437,50;0,4817
438,00;0,4784
438,50;0,4750
439,00;0,4719
439,50;0,4689
440,00;0,4659
440,50;0,4632
441,00;0,4606
441,50;0,4581
442,00;0,4554
442,50;0,4531
443,00;0,4507
443,50;0,4487
444,00;0,4464
444,50;0,4444
445,00;0,4422
445,50;0,4402
446,00;0,4383
446,50;0,4362
447,00;0,4343
447,50;0,4323
448,00;0,4304
448,50;0,4285
449,00;0,4265
449,50;0,4245
450,00;0,4225
450,50;0,4206
451,00;0,4185
451,50;0,4166
452,00;0,4146
452,50;0,4127
453,00;0,4107
453,50;0,4089
454,00;0,4069
454,50;0,4051
455,00;0,4033
455,50;0,4016
456,00;0,3999
456,50;0,3983
457,00;0,3967
457,50;0,3954
458,00;0,3939
458,50;0,3925
459,00;0,3913
459,50;0,3902
460,00;0,3890
460,50;0,3880
461,00;0,3873
461,50;0,3864
462,00;0,3856
462,50;0,3850
463,00;0,3843
463,50;0,3839
464,00;0,3833
464,50;0,3831
465,00;0,3826
465,50;0,3823
466,00;0,3821
466,50;0,3819
467,00;0,3818
467,50;0,3816
468,00;0,3817
468,50;0,3816
469,00;0,3816
469,50;0,3817
470,00;0,3817
470,50;0,3820
471,00;0,3822
471,50;0,3824
472,00;0,3826
472,50;0,3829
473,00;0,3831
473,50;0,3835
474,00;0,3839
474,50;0,3842
475,00;0,3845
475,50;0,3849
476,00;0,3853
476,50;0,3857
477,00;0,3861
477,50;0,3866
478,00;0,3870
478,50;0,3874
479,00;0,3878
479,50;0,3882
480,00;0,3887
480,50;0,3892
481,00;0,3896
481,50;0,3901
482,00;0,3906
482,50;0,3911
483,00;0,3915
483,50;0,3920
484,00;0,3925
484,50;0,3929
485,00;0,3934
485,50;0,3939
486,00;0,3944
486,50;0,3949
487,00;0,3954
487,50;0,3959
488,00;0,3965
488,50;0,3970
489,00;0,3977
489,50;0,3982
490,00;0,3988
490,50;0,3994
491,00;0,4000
491,50;0,4007
492,00;0,4013
492,50;0,4020
493,00;0,4027
493,50;0,4035
494,00;0,4042
494,50;0,4050
495,00;0,4059
495,50;0,4067
496,00;0,4076
496,50;0,4085
497,00;0,4094
497,50;0,4104
498,00;0,4114
498,50;0,4125
499,00;0,4136
499,50;0,4148
500,00;0,4159
500,50;0,4173
501,00;0,4187
501,50;0,4201
502,00;0,4217
502,50;0,4233
503,00;0,4250
503,50;0,4268
504,00;0,4286
504,50;0,4305
505,00;0,4325
505,50;0,4346
506,00;0,4367
506,50;0,4388
507,00;0,4410
507,50;0,4431
508,00;0,4453
508,50;0,4474
509,00;0,4496
509,50;0,4518
510,00;0,4540
510,50;0,4562
511,00;0,4585
511,50;0,4607
512,00;0,4630
512,50;0,4652
513,00;0,4676
513,50;0,4699
514,00;0,4724
514,50;0,4749
515,00;0,4775
515,50;0,4802
516,00;0,4830
516,50;0,4858
517,00;0,4887
517,50;0,4918
518,00;0,4949
518,50;0,4981
519,00;0,5014
519,50;0,5048
520,00;0,5082
520,50;0,5118
521,00;0,5154
521,50;0,5190
522,00;0,5227
522,50;0,5265
523,00;0,5303
523,50;0,5341
524,00;0,5380
524,50;0,5419
525,00;0,5460
525,50;0,5500
526,00;0,5540
526,50;0,5581
527,00;0,5623
527,50;0,5665
528,00;0,5707
528,50;0,5749
529,00;0,5792
529,50;0,5834
530,00;0,5878
530,50;0,5921
531,00;0,5965
531,50;0,6009
532,00;0,6053
532,50;0,6098
533,00;0,6143
533,50;0,6189
534,00;0,6235
534,50;0,6281
535,00;0,6329
535,50;0,6377
536,00;0,6424
536,50;0,6472
537,00;0,6520
537,50;0,6569
538,00;0,6618
538,50;0,6669
539,00;0,6719
539,50;0,6769
540,00;0,6820
540,50;0,6871
541,00;0,6923
541,50;0,6975
542,00;0,7028
542,50;0,7080
543,00;0,7134
543,50;0,7187
544,00;0,7241
544,50;0,7295
545,00;0,7349
545,50;0,7404
546,00;0,7459
546,50;0,7514
547,00;0,7570
547,50;0,7626
548,00;0,7683
548,50;0,7740
549,00;0,7797
549,50;0,7855
550,00;0,7913
550,50;0,7972
551,00;0,8030
551,50;0,8088
552,00;0,8147
552,50;0,8206
553,00;0,8265
553,50;0,8324
554,00;0,8384
554,50;0,8444
555,00;0,8504
555,50;0,8564
556,00;0,8625
556,50;0,8684
557,00;0,8745
557,50;0,8805
558,00;0,8864
558,50;0,8924
559,00;0,8984
559,50;0,9044
560,00;0,9104
560,50;0,9164
561,00;0,9224
561,50;0,9283
562,00;0,9344
562,50;0,9405
563,00;0,9466
563,50;0,9525
564,00;0,9584
564,50;0,9643
565,00;0,9702
565,50;0,9762
566,00;0,9820
566,50;0,9879
567,00;0,9937
567,50;0,9995
568,00;1,0053
568,50;1,0110
569,00;1,0167
569,50;1,0225
570,00;1,0282
570,50;1,0338
571,00;1,0393
571,50;1,0449
572,00;1,0503
572,50;1,0557
573,00;1,0609
573,50;1,0663
574,00;1,0715
574,50;1,0767
575,00;1,0820
575,50;1,0870
576,00;1,0922
576,50;1,0974
577,00;1,1024
577,50;1,1073
578,00;1,1121
578,50;1,1169
579,00;1,1219
579,50;1,1265
580,00;1,1311
580,50;1,1356
581,00;1,1403
581,50;1,1447
582,00;1,1493
582,50;1,1537
583,00;1,1580
583,50;1,1622
584,00;1,1665
584,50;1,1704
585,00;1,1746
585,50;1,1785
586,00;1,1825
586,50;1,1863
587,00;1,1900
587,50;1,1936
588,00;1,1973
588,50;1,2010
589,00;1,2046
589,50;1,2081
590,00;1,2116
590,50;1,2149
591,00;1,2183
591,50;1,2215
592,00;1,2246
592,50;1,2279
593,00;1,2309
593,50;1,2336
594,00;1,2368
594,50;1,2396
595,00;1,2423
595,50;1,2452
596,00;1,2478
596,50;1,2506
597,00;1,2532
597,50;1,2558
598,00;1,2583
598,50;1,2607
599,00;1,2631
599,50;1,2654
600,00;1,2676
600,50;1,2699
601,00;1,2719
601,50;1,2741
602,00;1,2760
602,50;1,2782
603,00;1,2802
603,50;1,2820
604,00;1,2839
604,50;1,2857
605,00;1,2876
605,50;1,2894
606,00;1,2911
606,50;1,2928
607,00;1,2944
607,50;1,2960
608,00;1,2976
608,50;1,2992
609,00;1,3006
609,50;1,3019
610,00;1,3034
610,50;1,3047
611,00;1,3059
611,50;1,3074
612,00;1,3085
612,50;1,3097
613,00;1,3108
613,50;1,3120
614,00;1,3132
614,50;1,3141
615,00;1,3152
615,50;1,3163
616,00;1,3170
616,50;1,3182
617,00;1,3192
617,50;1,3200
618,00;1,3209
618,50;1,3219
619,00;1,3226
619,50;1,3236
620,00;1,3242
620,50;1,3249
621,00;1,3255
621,50;1,3265
622,00;1,3270
622,50;1,3276
623,00;1,3284
623,50;1,3290
624,00;1,3294
624,50;1,3301
625,00;1,3306
625,50;1,3312
626,00;1,3318
626,50;1,3321
627,00;1,3327
627,50;1,3330
628,00;1,3336
628,50;1,3338
629,00;1,3340
629,50;1,3346
630,00;1,3350
630,50;1,3354
631,00;1,3358
631,50;1,3359
632,00;1,3362
632,50;1,3365
633,00;1,3366
633,50;1,3371
634,00;1,3372
634,50;1,3373
635,00;1,3375
635,50;1,3377
636,00;1,3378
636,50;1,3380
637,00;1,3381
637,50;1,3382
638,00;1,3383
638,50;1,3383
639,00;1,3383
639,50;1,3385
640,00;1,3384
640,50;1,3386
641,00;1,3385
641,50;1,3385
642,00;1,3384
642,50;1,3383
643,00;1,3385
643,50;1,3382
644,00;1,3382
644,50;1,3380
645,00;1,3380
645,50;1,3378
646,00;1,3377
646,50;1,3377
647,00;1,3374
647,50;1,3372
648,00;1,3369
648,50;1,3367
649,00;1,3366
649,50;1,3363
650,00;1,3358
650,50;1,3357
651,00;1,3353
651,50;1,3350
652,00;1,3347
652,50;1,3344
653,00;1,3340
653,50;1,3336
654,00;1,3331
654,50;1,3329
655,00;1,3324
655,50;1,3319
656,00;1,3313
656,50;1,3308
657,00;1,3303
657,50;1,3298
658,00;1,3295
658,50;1,3288
659,00;1,3282
659,50;1,3276
660,00;1,3269
660,50;1,3263
661,00;1,3256
661,50;1,3251
662,00;1,3243
662,50;1,3238
663,00;1,3230
663,50;1,3223
664,00;1,3215
664,50;1,3209
665,00;1,3201
665,50;1,3191
666,00;1,3184
666,50;1,3174
667,00;1,3166
667,50;1,3157
668,00;1,3148
668,50;1,3138
669,00;1,3130
669,50;1,3118
670,00;1,3109
670,50;1,3099
671,00;1,3087
671,50;1,3078
672,00;1,3067
672,50;1,3054
673,00;1,3042
673,50;1,3032
674,00;1,3019
674,50;1,3007
675,00;1,2995
675,50;1,2981
676,00;1,2968
676,50;1,2954
677,00;1,2940
677,50;1,2925
678,00;1,2912
678,50;1,2898
679,00;1,2883
679,50;1,2869
680,00;1,2853
680,50;1,2836
681,00;1,2820
681,50;1,2805
682,00;1,2788
682,50;1,2771
683,00;1,2753
683,50;1,2735
684,00;1,2719
684,50;1,2699
685,00;1,2682
685,50;1,2662
686,00;1,2642
686,50;1,2622
687,00;1,2602
687,50;1,2583
688,00;1,2562
688,50;1,2541
689,00;1,2519
689,50;1,2497
690,00;1,2475
690,50;1,2453
691,00;1,2431
691,50;1,2407
692,00;1,2385
692,50;1,2359
693,00;1,2337
693,50;1,2312
694,00;1,2287
694,50;1,2262
695,00;1,2236
695,50;1,2209
696,00;1,2184
696,50;1,2156
697,00;1,2129
697,50;1,2100
698,00;1,2073
698,50;1,2045
699,00;1,2016
699,50;1,1987
700,00;1,1964
700,50;1,1927
701,00;1,1898
701,50;1,1867
702,00;1,1836
702,50;1,1805
703,00;1,1774
703,50;1,1742
704,00;1,1710
704,50;1,1678
705,00;1,1646
705,50;1,1612
706,00;1,1578
706,50;1,1544
707,00;1,1510
707,50;1,1474
708,00;1,1440
708,50;1,1404
709,00;1,1366
709,50;1,1330
710,00;1,1293
710,50;1,1256
711,00;1,1217
711,50;1,1180
712,00;1,1141
712,50;1,1102
713,00;1,1063
713,50;1,1024
714,00;1,0984
714,50;1,0944
715,00;1,0904
715,50;1,0861
716,00;1,0820
716,50;1,0778
717,00;1,0735
717,50;1,0693
718,00;1,0648
718,50;1,0603
719,00;1,0559
719,50;1,0516
720,00;1,0471
720,50;1,0425
721,00;1,0380
721,50;1,0333
722,00;1,0286
722,50;1,0239
723,00;1,0192
723,50;1,0145
724,00;1,0098
724,50;1,0050
725,00;1,0000
725,50;0,9953
726,00;0,9905
726,50;0,9855
727,00;0,9807
727,50;0,9759
728,00;0,9709
728,50;0,9660
729,00;0,9611
729,50;0,9561
730,00;0,9512
730,50;0,9461
731,00;0,9410
731,50;0,9360
732,00;0,9310
732,50;0,9259
733,00;0,9208
733,50;0,9157
734,00;0,9106
734,50;0,9055
735,00;0,9002
735,50;0,8950
736,00;0,8898
736,50;0,8845
737,00;0,8793
737,50;0,8740
738,00;0,8687
738,50;0,8635
739,00;0,8581
739,50;0,8528
740,00;0,8475
740,50;0,8423
741,00;0,8371
741,50;0,8318
742,00;0,8266
742,50;0,8214
743,00;0,8161
743,50;0,8108
744,00;0,8055
744,50;0,8002
745,00;0,7949
745,50;0,7896
746,00;0,7843
746,50;0,7791
747,00;0,7738
747,50;0,7685
748,00;0,7632
748,50;0,7580
749,00;0,7526
749,50;0,7473
750,00;0,7420
750,50;0,7366
751,00;0,7312
751,50;0,7259
752,00;0,7205
752,50;0,7152
753,00;0,7099
753,50;0,7045
754,00;0,6992
754,50;0,6938
755,00;0,6886
755,50;0,6834
756,00;0,6782
756,50;0,6730
757,00;0,6678
757,50;0,6626
758,00;0,6574
758,50;0,6522
759,00;0,6470
759,50;0,6418
760,00;0,6367
760,50;0,6315
761,00;0,6265
761,50;0,6214
762,00;0,6163
762,50;0,6112
763,00;0,6061
763,50;0,6010
764,00;0,5958
764,50;0,5907
765,00;0,5856
765,50;0,5805
766,00;0,5755
766,50;0,5704
767,00;0,5654
767,50;0,5604
768,00;0,5554
768,50;0,5506
769,00;0,5456
769,50;0,5408
770,00;0,5361
770,50;0,5312
771,00;0,5264
771,50;0,5216
772,00;0,5167
772,50;0,5120
773,00;0,5073
773,50;0,5026
774,00;0,4979
774,50;0,4933
775,00;0,4887
775,50;0,4841
776,00;0,4795
776,50;0,4750
777,00;0,4705
777,50;0,4659
778,00;0,4614
778,50;0,4568
779,00;0,4523
779,50;0,4479
780,00;0,4434
780,50;0,4389
781,00;0,4346
781,50;0,4302
782,00;0,4260
782,50;0,4216
783,00;0,4174
783,50;0,4133
784,00;0,4092
784,50;0,4050
785,00;0,4009
785,50;0,3968
786,00;0,3927
786,50;0,3887
787,00;0,3847
787,50;0,3807
788,00;0,3768
788,50;0,3729
789,00;0,3691
789,50;0,3653
790,00;0,3615
790,50;0,3577
791,00;0,3539
791,50;0,3502
792,00;0,3464
792,50;0,3427
793,00;0,3390
793,50;0,3354
794,00;0,3318
794,50;0,3282
795,00;0,3246
795,50;0,3211
796,00;0,3176
796,50;0,3142
797,00;0,3108
797,50;0,3075
798,00;0,3043
798,50;0,3010
799,00;0,2978
799,50;0,2945
800,00;0,2913
800,50;0,2882
801,00;0,2850
801,50;0,2820
802,00;0,2789
802,50;0,2759
803,00;0,2729
803,50;0,2700
804,00;0,2671
804,50;0,2642
805,00;0,2613
805,50;0,2584
806,00;0,2556
806,50;0,2528
807,00;0,2500
807,50;0,2473
808,00;0,2445
808,50;0,2419
809,00;0,2392
809,50;0,2366
810,00;0,2340
810,50;0,2315
811,00;0,2290
811,50;0,2265
812,00;0,2241
812,50;0,2217
813,00;0,2193
813,50;0,2170
814,00;0,2146
814,50;0,2123
815,00;0,2100
815,50;0,2078
816,00;0,2056
816,50;0,2034
817,00;0,2013
817,50;0,1992
818,00;0,1970
818,50;0,1949
819,00;0,1929
819,50;0,1909
820,00;0,1888
820,50;0,1868
821,00;0,1848
821,50;0,1828
822,00;0,1809
822,50;0,1791
823,00;0,1772
823,50;0,1754
824,00;0,1736
824,50;0,1719
825,00;0,1703
825,50;0,1686
826,00;0,1670
826,50;0,1654
827,00;0,1638
827,50;0,1622
828,00;0,1606
828,50;0,1590
829,00;0,1576
829,50;0,1561
830,00;0,1546
830,50;0,1532
831,00;0,1518
831,50;0,1504
832,00;0,1489
832,50;0,1476
833,00;0,1462
833,50;0,1448
834,00;0,1435
834,50;0,1421
835,00;0,1408
835,50;0,1394
836,00;0,1381
836,50;0,1367
837,00;0,1354
837,50;0,1341
838,00;0,1329
838,50;0,1316
839,00;0,1304
839,50;0,1292
840,00;0,1279
840,50;0,1267
841,00;0,1255
841,50;0,1243
842,00;0,1231
842,50;0,1220
843,00;0,1208
843,50;0,1196
844,00;0,1185
844,50;0,1174
845,00;0,1163
845,50;0,1152
846,00;0,1141
846,50;0,1131
847,00;0,1121
847,50;0,1110
848,00;0,1100
848,50;0,1089
849,00;0,1080
849,50;0,1070
850,00;0,1060
