[nm];[A];
;Probe 1;
350,00;0,5233
350,50;0,5296
351,00;0,5349
351,50;0,5407
352,00;0,5461
352,50;0,5518
353,00;0,5576
353,50;0,5638
354,00;0,5697
354,50;0,5757
355,00;0,5818
355,50;0,5878
356,00;0,5944
356,50;0,6004
357,00;0,6066
357,50;0,6133
358,00;0,6188
358,50;0,6257
359,00;0,6319
359,50;0,6385
360,00;0,6453
360,50;0,6522
361,00;0,6588
361,50;0,6650
362,00;0,6722
362,50;0,6787
363,00;0,6859
363,50;0,6919
364,00;0,6994
364,50;0,7060
365,00;0,7138
365,50;0,7199
366,00;0,7278
366,50;0,7344
367,00;0,7411
367,50;0,7496
368,00;0,7564
368,50;0,7632
369,00;0,7706
369,50;0,7785
370,00;0,7832
370,50;0,7912
371,00;0,7983
371,50;0,8059
372,00;0,8129
372,50;0,8204
373,00;0,8270
373,50;0,8342
374,00;0,8416
374,50;0,8488
375,00;0,8556
375,50;0,8618
376,00;0,8686
376,50;0,8764
377,00;0,8834
377,50;0,8898
378,00;0,8967
378,50;0,9022
379,00;0,9090
379,50;0,9157
380,00;0,9209
380,50;0,9269
381,00;0,9331
381,50;0,9390
382,00;0,9443
382,50;0,9508
383,00;0,9560
383,50;0,9617
384,00;0,9672
384,50;0,9720
385,00;0,9773
385,50;0,9822
386,00;0,9875
386,50;0,9915
387,00;0,9971
387,50;1,0010
388,00;1,0059
388,50;1,0099
389,00;1,0133
389,50;1,0179
390,00;1,0218
390,50;1,0253
391,00;1,0289
391,50;1,0326
392,00;1,0354
392,50;1,0392
393,00;1,0417
393,50;1,0450
394,00;1,0472
394,50;1,0499
395,00;1,0524
395,50;1,0549
396,00;1,0569
396,50;1,0589
397,00;1,0607
397,50;1,0624
398,00;1,0637
398,50;1,0657
399,00;1,0667
399,50;1,0677
400,00;1,0683
400,50;1,0688
401,00;1,0698
401,50;1,0703
402,00;1,0704
402,50;1,0711
403,00;1,0711
403,50;1,0708
404,00;1,0710
404,50;1,0700
405,00;1,0694
405,50;1,0693
406,00;1,0678
406,50;1,0672
407,00;1,0664
407,50;1,0649
408,00;1,0634
408,50;1,0617
409,00;1,0602
409,50;1,0586
410,00;1,0560
410,50;1,0538
411,00;1,0517
411,50;1,0489
412,00;1,0466
412,50;1,0441
413,00;1,0412
413,50;1,0377
414,00;1,0346
414,50;1,0315
415,00;1,0282
415,50;1,0240
416,00;1,0203
416,50;1,0166
417,00;1,0123
417,50;1,0083
418,00;1,0037
418,50;0,9995
419,00;0,9945
419,50;0,9896
420,00;0,9846
420,50;0,9797
421,00;0,9741
421,50;0,9691
422,00;0,9632
422,50;0,9577
423,00;0,9520
423,50;0,9460
424,00;0,9400
424,50;0,9337
425,00;0,9272
425,50;0,9209
426,00;0,9145
426,50;0,9077
427,00;0,9007
427,50;0,8938
428,00;0,8869
428,50;0,8795
429,00;0,8724
429,50;0,8652
430,00;0,8577
430,50;0,8502
431,00;0,8424
431,50;0,8349
432,00;0,8272
432,50;0,8193
433,00;0,8114
433,50;0,8036
434,00;0,7958
434,50;0,7878
435,00;0,7797
435,50;0,7714
436,00;0,7634
436,50;0,7551
437,00;0,7470
437,50;0,7384
438,00;0,7302
438,50;0,7217
439,00;0,7134
439,50;0,7052
440,00;0,6969
440,50;0,6885
441,00;0,6802
441,50;0,6719
442,00;0,6634
442,50;0,6553
443,00;0,6469
443,50;0,6389
444,00;0,6307
444,50;0,6226
445,00;0,6144
445,50;0,6063
446,00;0,5984
446,50;0,5905
447,00;0,5827
447,50;0,5746
448,00;0,5671
448,50;0,5594
449,00;0,5518
449,50;0,5441
450,00;0,5366
450,50;0,5292
451,00;0,5217
451,50;0,5144
452,00;0,5070
452,50;0,4999
453,00;0,4928
453,50;0,4858
454,00;0,4789
454,50;0,4719
455,00;0,4652
455,50;0,4584
456,00;0,4519
456,50;0,4453
457,00;0,4388
457,50;0,4325
458,00;0,4263
458,50;0,4200
459,00;0,4140
459,50;0,4080
460,00;0,4021
460,50;0,3962
461,00;0,3906
461,50;0,3850
462,00;0,3795
462,50;0,3740
463,00;0,3686
463,50;0,3634
464,00;0,3580
464,50;0,3528
465,00;0,3479
465,50;0,3426
466,00;0,3378
466,50;0,3330
467,00;0,3282
467,50;0,3234
468,00;0,3189
468,50;0,3143
469,00;0,3098
469,50;0,3054
470,00;0,3004
470,50;0,2959
471,00;0,2918
471,50;0,2875
472,00;0,2836
472,50;0,2796
473,00;0,2757
473,50;0,2719
474,00;0,2683
474,50;0,2645
475,00;0,2609
475,50;0,2573
476,00;0,2539
476,50;0,2505
477,00;0,2470
477,50;0,2437
478,00;0,2405
478,50;0,2372
479,00;0,2341
479,50;0,2309
480,00;0,2278
480,50;0,2248
481,00;0,2219
481,50;0,2189
482,00;0,2161
482,50;0,2133
483,00;0,2105
483,50;0,2078
484,00;0,2051
484,50;0,2026
485,00;0,2000
485,50;0,1974
486,00;0,1949
486,50;0,1924
487,00;0,1900
487,50;0,1877
488,00;0,1853
488,50;0,1831
489,00;0,1809
489,50;0,1787
490,00;0,1765
490,50;0,1744
491,00;0,1723
491,50;0,1702
492,00;0,1682
492,50;0,1662
493,00;0,1642
493,50;0,1623
494,00;0,1603
494,50;0,1585
495,00;0,1566
495,50;0,1548
496,00;0,1530
496,50;0,1513
497,00;0,1496
497,50;0,1479
498,00;0,1462
498,50;0,1445
499,00;0,1429
499,50;0,1414
500,00;0,1398
500,50;0,1382
501,00;0,1367
501,50;0,1352
502,00;0,1339
502,50;0,1324
503,00;0,1310
503,50;0,1297
504,00;0,1283
504,50;0,1270
505,00;0,1258
505,50;0,1245
506,00;0,1232
506,50;0,1219
507,00;0,1207
507,50;0,1194
508,00;0,1183
508,50;0,1171
509,00;0,1159
509,50;0,1147
510,00;0,1136
510,50;0,1125
511,00;0,1113
511,50;0,1102
512,00;0,1091
512,50;0,1080
513,00;0,1069
513,50;0,1059
514,00;0,1049
514,50;0,1038
515,00;0,1028
515,50;0,1018
516,00;0,1009
516,50;0,0999
517,00;0,0990
517,50;0,0982
518,00;0,0973
518,50;0,0964
519,00;0,0955
519,50;0,0946
520,00;0,0938
520,50;0,0929
521,00;0,0921
521,50;0,0913
522,00;0,0905
522,50;0,0897
523,00;0,0889
523,50;0,0881
524,00;0,0874
524,50;0,0866
525,00;0,0859
525,50;0,0851
526,00;0,0844
526,50;0,0837
527,00;0,0830
527,50;0,0823
528,00;0,0816
528,50;0,0809
529,00;0,0802
529,50;0,0795
530,00;0,0789
530,50;0,0782
531,00;0,0776
531,50;0,0770
532,00;0,0764
532,50;0,0757
533,00;0,0751
533,50;0,0745
534,00;0,0739
534,50;0,0733
535,00;0,0727
535,50;0,0721
536,00;0,0715
536,50;0,0710
537,00;0,0704
537,50;0,0698
538,00;0,0693
538,50;0,0688
539,00;0,0682
539,50;0,0677
540,00;0,0672
540,50;0,0667
541,00;0,0661
541,50;0,0656
542,00;0,0651
542,50;0,0646
543,00;0,0642
543,50;0,0637
544,00;0,0632
544,50;0,0627
545,00;0,0623
545,50;0,0619
546,00;0,0614
546,50;0,0610
547,00;0,0605
547,50;0,0601
548,00;0,0597
548,50;0,0592
549,00;0,0588
549,50;0,0584
550,00;0,0580
550,50;0,0575
551,00;0,0571
551,50;0,0567
552,00;0,0564
552,50;0,0560
553,00;0,0556
553,50;0,0552
554,00;0,0548
554,50;0,0544
555,00;0,0541
555,50;0,0537
556,00;0,0533
556,50;0,0530
557,00;0,0527
557,50;0,0523
558,00;0,0520
558,50;0,0516
559,00;0,0513
559,50;0,0509
560,00;0,0506
560,50;0,0503
561,00;0,0500
561,50;0,0496
562,00;0,0493
562,50;0,0490
563,00;0,0487
563,50;0,0484
564,00;0,0481
564,50;0,0478
565,00;0,0475
565,50;0,0472
566,00;0,0469
566,50;0,0466
567,00;0,0463
567,50;0,0460
568,00;0,0458
568,50;0,0455
569,00;0,0452
569,50;0,0449
570,00;0,0446
570,50;0,0444
571,00;0,0441
571,50;0,0438
572,00;0,0436
572,50;0,0433
573,00;0,0431
573,50;0,0428
574,00;0,0426
574,50;0,0423
575,00;0,0421
575,50;0,0418
576,00;0,0416
576,50;0,0414
577,00;0,0411
577,50;0,0408
578,00;0,0406
578,50;0,0404
579,00;0,0402
579,50;0,0399
580,00;0,0397
580,50;0,0395
581,00;0,0393
581,50;0,0391
582,00;0,0388
582,50;0,0386
583,00;0,0384
583,50;0,0382
584,00;0,0380
584,50;0,0378
585,00;0,0376
585,50;0,0374
586,00;0,0372
586,50;0,0370
587,00;0,0368
587,50;0,0366
588,00;0,0364
588,50;0,0362
589,00;0,0360
589,50;0,0358
590,00;0,0356
590,50;0,0355
591,00;0,0353
591,50;0,0351
592,00;0,0349
592,50;0,0348
593,00;0,0346
593,50;0,0344
594,00;0,0342
594,50;0,0340
595,00;0,0339
595,50;0,0336
596,00;0,0335
596,50;0,0334
597,00;0,0332
597,50;0,0330
598,00;0,0328
598,50;0,0327
599,00;0,0325
599,50;0,0323
600,00;0,0322
600,50;0,0320
601,00;0,0319
601,50;0,0317
602,00;0,0315
602,50;0,0314
603,00;0,0313
603,50;0,0311
604,00;0,0310
604,50;0,0308
605,00;0,0307
605,50;0,0305
606,00;0,0304
606,50;0,0302
607,00;0,0301
607,50;0,0299
608,00;0,0298
608,50;0,0297
609,00;0,0295
609,50;0,0294
610,00;0,0293
610,50;0,0291
611,00;0,0290
611,50;0,0289
612,00;0,0287
612,50;0,0286
613,00;0,0284
613,50;0,0283
614,00;0,0282
614,50;0,0281
615,00;0,0280
615,50;0,0278
616,00;0,0277
616,50;0,0276
617,00;0,0275
617,50;0,0273
618,00;0,0272
618,50;0,0271
619,00;0,0270
619,50;0,0269
620,00;0,0268
620,50;0,0267
621,00;0,0265
621,50;0,0264
622,00;0,0263
622,50;0,0262
623,00;0,0261
623,50;0,0260
624,00;0,0259
624,50;0,0258
625,00;0,0257
625,50;0,0256
626,00;0,0254
626,50;0,0253
627,00;0,0252
627,50;0,0251
628,00;0,0250
628,50;0,0249
629,00;0,0248
629,50;0,0247
630,00;0,0246
630,50;0,0245
631,00;0,0244
631,50;0,0244
632,00;0,0242
632,50;0,0242
633,00;0,0241
633,50;0,0240
634,00;0,0239
634,50;0,0238
635,00;0,0237
635,50;0,0236
636,00;0,0235
636,50;0,0234
637,00;0,0233
637,50;0,0232
638,00;0,0231
638,50;0,0230
639,00;0,0230
639,50;0,0229
640,00;0,0228
640,50;0,0227
641,00;0,0226
641,50;0,0226
642,00;0,0225
642,50;0,0224
643,00;0,0223
643,50;0,0222
644,00;0,0222
644,50;0,0221
645,00;0,0220
645,50;0,0219
646,00;0,0218
646,50;0,0218
647,00;0,0217
647,50;0,0216
648,00;0,0215
648,50;0,0215
649,00;0,0214
649,50;0,0213
650,00;0,0213
650,50;0,0212
651,00;0,0211
651,50;0,0210
652,00;0,0210
652,50;0,0209
653,00;0,0209
653,50;0,0208
654,00;0,0207
654,50;0,0206
655,00;0,0206
655,50;0,0205
656,00;0,0204
656,50;0,0203
657,00;0,0203
657,50;0,0202
658,00;0,0202
658,50;0,0201
659,00;0,0200
659,50;0,0200
660,00;0,0199
660,50;0,0198
661,00;0,0198
661,50;0,0197
662,00;0,0196
662,50;0,0196
663,00;0,0195
663,50;0,0195
664,00;0,0194
664,50;0,0193
665,00;0,0193
665,50;0,0192
666,00;0,0192
666,50;0,0191
667,00;0,0190
667,50;0,0190
668,00;0,0189
668,50;0,0189
669,00;0,0188
669,50;0,0188
670,00;0,0187
670,50;0,0187
671,00;0,0186
671,50;0,0185
672,00;0,0185
672,50;0,0184
673,00;0,0184
673,50;0,0183
674,00;0,0183
674,50;0,0183
675,00;0,0182
675,50;0,0181
676,00;0,0181
676,50;0,0180
677,00;0,0180
677,50;0,0180
678,00;0,0179
678,50;0,0178
679,00;0,0178
679,50;0,0178
680,00;0,0177
680,50;0,0177
681,00;0,0176
681,50;0,0176
682,00;0,0176
682,50;0,0175
683,00;0,0174
683,50;0,0174
684,00;0,0174
684,50;0,0173
685,00;0,0173
685,50;0,0172
686,00;0,0172
686,50;0,0171
687,00;0,0171
687,50;0,0170
688,00;0,0170
688,50;0,0170
689,00;0,0169
689,50;0,0169
690,00;0,0169
690,50;0,0168
691,00;0,0168
691,50;0,0167
692,00;0,0167
692,50;0,0167
693,00;0,0166
693,50;0,0166
694,00;0,0165
694,50;0,0165
695,00;0,0165
695,50;0,0164
696,00;0,0164
696,50;0,0164
697,00;0,0164
697,50;0,0163
698,00;0,0162
698,50;0,0162
699,00;0,0162
699,50;0,0161
700,00;0,0161
700,50;0,0161
701,00;0,0160
701,50;0,0160
702,00;0,0160
702,50;0,0159
703,00;0,0159
703,50;0,0158
704,00;0,0158
704,50;0,0158
705,00;0,0158
705,50;0,0157
706,00;0,0157
706,50;0,0157
707,00;0,0156
707,50;0,0156
708,00;0,0156
708,50;0,0156
709,00;0,0155
709,50;0,0155
710,00;0,0155
710,50;0,0154
711,00;0,0154
711,50;0,0154
712,00;0,0154
712,50;0,0153
713,00;0,0153
713,50;0,0153
714,00;0,0152
714,50;0,0152
715,00;0,0152
715,50;0,0151
716,00;0,0151
716,50;0,0151
717,00;0,0151
717,50;0,0150
718,00;0,0150
718,50;0,0150
719,00;0,0149
719,50;0,0149
720,00;0,0149
720,50;0,0149
721,00;0,0149
721,50;0,0148
722,00;0,0148
722,50;0,0148
723,00;0,0148
723,50;0,0147
724,00;0,0147
724,50;0,0147
725,00;0,0147
725,50;0,0146
726,00;0,0146
726,50;0,0146
727,00;0,0146
727,50;0,0145
728,00;0,0145
728,50;0,0145
729,00;0,0144
729,50;0,0144
730,00;0,0144
730,50;0,0144
731,00;0,0143
731,50;0,0143
732,00;0,0143
732,50;0,0142
733,00;0,0142
733,50;0,0142
734,00;0,0142
734,50;0,0142
735,00;0,0141
735,50;0,0141
736,00;0,0141
736,50;0,0140
737,00;0,0140
737,50;0,0140
738,00;0,0140
738,50;0,0140
739,00;0,0139
739,50;0,0139
740,00;0,0139
740,50;0,0139
741,00;0,0139
741,50;0,0138
742,00;0,0138
742,50;0,0138
743,00;0,0138
743,50;0,0138
744,00;0,0138
744,50;0,0138
745,00;0,0137
745,50;0,0137
746,00;0,0137
746,50;0,0137
747,00;0,0136
747,50;0,0136
748,00;0,0136
748,50;0,0136
749,00;0,0136
749,50;0,0136
750,00;0,0135
750,50;0,0135
751,00;0,0135
751,50;0,0135
752,00;0,0135
752,50;0,0134
753,00;0,0135
753,50;0,0134
754,00;0,0134
754,50;0,0134
755,00;0,0134
755,50;0,0134
756,00;0,0133
756,50;0,0133
757,00;0,0133
757,50;0,0133
758,00;0,0133
758,50;0,0132
759,00;0,0132
759,50;0,0132
760,00;0,0132
760,50;0,0131
761,00;0,0132
761,50;0,0132
762,00;0,0132
762,50;0,0131
763,00;0,0131
763,50;0,0131
764,00;0,0131
764,50;0,0131
765,00;0,0130
765,50;0,0130
766,00;0,0130
766,50;0,0130
767,00;0,0130
767,50;0,0129
768,00;0,0130
768,50;0,0129
769,00;0,0129
769,50;0,0129
770,00;0,0129
770,50;0,0129
771,00;0,0128
771,50;0,0128
772,00;0,0128
772,50;0,0128
773,00;0,0128
773,50;0,0128
774,00;0,0128
774,50;0,0127
775,00;0,0127
775,50;0,0127
776,00;0,0126
776,50;0,0127
777,00;0,0127
777,50;0,0127
778,00;0,0126
778,50;0,0126
779,00;0,0126
779,50;0,0126
780,00;0,0126
780,50;0,0125
781,00;0,0125
781,50;0,0125
782,00;0,0125
782,50;0,0124
783,00;0,0124
783,50;0,0125
784,00;0,0124
784,50;0,0124
785,00;0,0124
785,50;0,0124
786,00;0,0124
786,50;0,0123
787,00;0,0123
787,50;0,0123
788,00;0,0123
788,50;0,0123
789,00;0,0122
789,50;0,0122
790,00;0,0122
790,50;0,0122
791,00;0,0122
791,50;0,0122
792,00;0,0121
792,50;0,0121
793,00;0,0121
793,50;0,0121
794,00;0,0121
794,50;0,0121
795,00;0,0120
795,50;0,0120
796,00;0,0120
796,50;0,0120
797,00;0,0120
797,50;0,0120
798,00;0,0119
798,50;0,0119
799,00;0,0119
799,50;0,0119
800,00;0,0119
800,50;0,0119
801,00;0,0118
801,50;0,0118
802,00;0,0118
802,50;0,0118
803,00;0,0118
803,50;0,0117
804,00;0,0117
804,50;0,0117
805,00;0,0116
805,50;0,0117
806,00;0,0116
806,50;0,0116
807,00;0,0116
807,50;0,0116
808,00;0,0115
808,50;0,0116
809,00;0,0115
809,50;0,0115
810,00;0,0115
810,50;0,0115
811,00;0,0115
811,50;0,0114
812,00;0,0114
812,50;0,0114
813,00;0,0114
813,50;0,0113
814,00;0,0113
814,50;0,0114
815,00;0,0113
815,50;0,0113
816,00;0,0112
816,50;0,0112
817,00;0,0112
817,50;0,0112
818,00;0,0111
818,50;0,0112
819,00;0,0111
819,50;0,0111
820,00;0,0111
820,50;0,0110
821,00;0,0110
821,50;0,0110
822,00;0,0110
822,50;0,0110
823,00;0,0110
823,50;0,0109
824,00;0,0109
824,50;0,0109
825,00;0,0109
825,50;0,0109
826,00;0,0108
826,50;0,0108
827,00;0,0108
827,50;0,0108
828,00;0,0107
828,50;0,0107
829,00;0,0107
829,50;0,0107
830,00;0,0107
830,50;0,0106
831,00;0,0106
831,50;0,0105
832,00;0,0105
832,50;0,0105
833,00;0,0105
833,50;0,0105
834,00;0,0105
834,50;0,0104
835,00;0,0104
835,50;0,0104
836,00;0,0104
836,50;0,0103
837,00;0,0103
837,50;0,0103
838,00;0,0103
838,50;0,0102
839,00;0,0102
839,50;0,0102
840,00;0,0102
840,50;0,0101
841,00;0,0101
841,50;0,0101
842,00;0,0101
842,50;0,0100
843,00;0,0100
843,50;0,0100
844,00;0,0100
844,50;0,0099
845,00;0,0099
845,50;0,0099
846,00;0,0098
846,50;0,0098
847,00;0,0098
847,50;0,0098
848,00;0,0098
848,50;0,0097
849,00;0,0097
849,50;0,0097
850,00;0,0096
