[nm];[A];
;Probe 1;
350,00;0,4634
350,50;0,4667
351,00;0,4701
351,50;0,4733
352,00;0,4766
352,50;0,4799
353,00;0,4836
353,50;0,4868
354,00;0,4906
354,50;0,4943
355,00;0,4978
355,50;0,5016
356,00;0,5054
356,50;0,5086
357,00;0,5127
357,50;0,5163
358,00;0,5200
358,50;0,5239
359,00;0,5279
359,50;0,5315
360,00;0,5352
360,50;0,5385
361,00;0,5428
361,50;0,5461
362,00;0,5500
362,50;0,5539
363,00;0,5578
363,50;0,5616
364,00;0,5652
364,50;0,5692
365,00;0,5731
365,50;0,5768
366,00;0,5807
366,50;0,5850
367,00;0,5886
367,50;0,5926
368,00;0,5964
368,50;0,6009
369,00;0,6051
369,50;0,6095
370,00;0,6139
370,50;0,6186
371,00;0,6232
371,50;0,6275
372,00;0,6322
372,50;0,6362
373,00;0,6412
373,50;0,6459
374,00;0,6507
374,50;0,6555
375,00;0,6606
375,50;0,6655
376,00;0,6707
376,50;0,6756
377,00;0,6809
377,50;0,6863
378,00;0,6913
378,50;0,6964
379,00;0,7020
379,50;0,7075
380,00;0,7130
380,50;0,7182
381,00;0,7241
381,50;0,7299
382,00;0,7362
382,50;0,7418
383,00;0,7473
383,50;0,7534
384,00;0,7595
384,50;0,7656
385,00;0,7714
385,50;0,7775
386,00;0,7839
386,50;0,7899
387,00;0,7962
387,50;0,8023
388,00;0,8082
388,50;0,8148
389,00;0,8203
389,50;0,8269
390,00;0,8327
390,50;0,8388
391,00;0,8446
391,50;0,8503
392,00;0,8563
392,50;0,8619
393,00;0,8676
393,50;0,8732
394,00;0,8782
394,50;0,8828
395,00;0,8886
395,50;0,8933
396,00;0,8975
396,50;0,9028
397,00;0,9069
397,50;0,9109
398,00;0,9152
398,50;0,9183
399,00;0,9223
399,50;0,9254
400,00;0,9284
400,50;0,9313
401,00;0,9340
401,50;0,9364
402,00;0,9385
402,50;0,9408
403,00;0,9424
403,50;0,9445
404,00;0,9456
404,50;0,9472
405,00;0,9487
405,50;0,9501
406,00;0,9507
406,50;0,9519
407,00;0,9529
407,50;0,9541
408,00;0,9546
408,50;0,9557
409,00;0,9566
409,50;0,9573
410,00;0,9583
410,50;0,9596
411,00;0,9599
411,50;0,9608
412,00;0,9623
412,50;0,9630
413,00;0,9639
413,50;0,9652
414,00;0,9658
414,50;0,9672
415,00;0,9685
415,50;0,9699
416,00;0,9711
416,50;0,9724
417,00;0,9736
417,50;0,9750
418,00;0,9768
418,50;0,9781
419,00;0,9796
419,50;0,9811
420,00;0,9823
420,50;0,9841
421,00;0,9851
421,50;0,9871
422,00;0,9884
422,50;0,9896
423,00;0,9910
423,50;0,9925
424,00;0,9938
424,50;0,9946
425,00;0,9960
425,50;0,9970
426,00;0,9979
426,50;0,9987
427,00;0,9994
427,50;0,9998
428,00;1,0001
428,50;1,0005
429,00;1,0000
429,50;1,0003
430,00;0,9997
430,50;0,9992
431,00;0,9985
431,50;0,9973
432,00;0,9960
432,50;0,9946
433,00;0,9927
433,50;0,9909
434,00;0,9885
434,50;0,9862
435,00;0,9834
435,50;0,9804
436,00;0,9770
436,50;0,9734
437,00;0,9699
437,50;0,9656
438,00;0,9617
438,50;0,9577
439,00;0,9529
439,50;0,9483
440,00;0,9439
440,50;0,9388
441,00;0,9341
441,50;0,9292
442,00;0,9245
442,50;0,9200
443,00;0,9153
443,50;0,9109
444,00;0,9068
444,50;0,9022
445,00;0,8987
445,50;0,8948
446,00;0,8912
446,50;0,8884
447,00;0,8857
447,50;0,8829
448,00;0,8803
448,50;0,8786
449,00;0,8767
449,50;0,8754
450,00;0,8742
450,50;0,8735
451,00;0,8730
451,50;0,8730
452,00;0,8730
452,50;0,8737
453,00;0,8739
453,50;0,8751
454,00;0,8761
454,50;0,8777
455,00;0,8792
455,50;0,8814
456,00;0,8832
456,50;0,8856
457,00;0,8879
457,50;0,8907
458,00;0,8932
458,50;0,8964
459,00;0,8996
459,50;0,9026
460,00;0,9058
460,50;0,9095
461,00;0,9131
461,50;0,9168
462,00;0,9205
462,50;0,9238
463,00;0,9279
463,50;0,9322
464,00;0,9362
464,50;0,9401
465,00;0,9442
465,50;0,9487
466,00;0,9531
466,50;0,9572
467,00;0,9613
467,50;0,9655
468,00;0,9702
468,50;0,9745
469,00;0,9790
469,50;0,9832
470,00;0,9842
470,50;0,9890
471,00;0,9936
471,50;0,9977
472,00;1,0024
472,50;1,0067
473,00;1,0108
473,50;1,0153
474,00;1,0194
474,50;1,0237
475,00;1,0279
475,50;1,0322
476,00;1,0362
476,50;1,0403
477,00;1,0443
477,50;1,0483
478,00;1,0524
478,50;1,0563
479,00;1,0601
479,50;1,0639
480,00;1,0677
480,50;1,0714
481,00;1,0751
481,50;1,0787
482,00;1,0823
482,50;1,0856
483,00;1,0890
483,50;1,0922
484,00;1,0954
484,50;1,0987
485,00;1,1018
485,50;1,1048
486,00;1,1079
486,50;1,1107
487,00;1,1135
487,50;1,1162
488,00;1,1189
488,50;1,1214
489,00;1,1237
489,50;1,1262
490,00;1,1285
490,50;1,1307
491,00;1,1328
491,50;1,1349
492,00;1,1368
492,50;1,1389
493,00;1,1406
493,50;1,1423
494,00;1,1438
494,50;1,1454
495,00;1,1469
495,50;1,1480
496,00;1,1494
496,50;1,1504
497,00;1,1515
497,50;1,1524
498,00;1,1533
498,50;1,1541
499,00;1,1551
499,50;1,1560
500,00;1,1569
500,50;1,1578
501,00;1,1594
501,50;1,1607
502,00;1,1624
502,50;1,1642
503,00;1,1663
503,50;1,1684
504,00;1,1705
504,50;1,1729
505,00;1,1756
505,50;1,1778
506,00;1,1803
506,50;1,1820
507,00;1,1837
507,50;1,1851
508,00;1,1856
508,50;1,1862
509,00;1,1861
509,50;1,1856
510,00;1,1848
510,50;1,1837
511,00;1,1821
511,50;1,1802
512,00;1,1781
512,50;1,1755
513,00;1,1731
513,50;1,1705
514,00;1,1678
514,50;1,1653
515,00;1,1627
515,50;1,1605
516,00;1,1582
516,50;1,1562
517,00;1,1542
517,50;1,1524
518,00;1,1506
518,50;1,1489
519,00;1,1472
519,50;1,1454
520,00;1,1436
520,50;1,1418
521,00;1,1398
521,50;1,1379
522,00;1,1359
522,50;1,1336
523,00;1,1311
523,50;1,1287
524,00;1,1260
524,50;1,1230
525,00;1,1201
525,50;1,1169
526,00;1,1134
526,50;1,1097
527,00;1,1060
527,50;1,1019
528,00;1,0977
528,50;1,0933
529,00;1,0888
529,50;1,0841
530,00;1,0793
530,50;1,0744
531,00;1,0692
531,50;1,0639
532,00;1,0586
532,50;1,0531
533,00;1,0475
533,50;1,0417
534,00;1,0358
534,50;1,0297
535,00;1,0237
535,50;1,0176
536,00;1,0114
536,50;1,0051
537,00;0,9987
537,50;0,9922
538,00;0,9857
538,50;0,9793
539,00;0,9727
539,50;0,9661
540,00;0,9595
540,50;0,9526
541,00;0,9460
541,50;0,9392
542,00;0,9325
542,50;0,9256
543,00;0,9189
543,50;0,9121
544,00;0,9053
544,50;0,8984
545,00;0,8917
545,50;0,8849
546,00;0,8780
546,50;0,8712
547,00;0,8643
547,50;0,8573
548,00;0,8504
548,50;0,8435
549,00;0,8365
549,50;0,8296
550,00;0,8226
550,50;0,8157
551,00;0,8087
551,50;0,8019
552,00;0,7950
552,50;0,7880
553,00;0,7811
553,50;0,7743
554,00;0,7674
554,50;0,7605
555,00;0,7537
555,50;0,7468
556,00;0,7399
556,50;0,7332
557,00;0,7264
557,50;0,7197
558,00;0,7129
558,50;0,7063
559,00;0,6998
559,50;0,6932
560,00;0,6866
560,50;0,6800
561,00;0,6735
561,50;0,6670
562,00;0,6605
562,50;0,6540
563,00;0,6475
563,50;0,6411
564,00;0,6348
564,50;0,6285
565,00;0,6222
565,50;0,6159
566,00;0,6097
566,50;0,6035
567,00;0,5974
567,50;0,5914
568,00;0,5853
568,50;0,5793
569,00;0,5733
569,50;0,5672
570,00;0,5614
570,50;0,5555
571,00;0,5497
571,50;0,5440
572,00;0,5384
572,50;0,5327
573,00;0,5272
573,50;0,5218
574,00;0,5163
574,50;0,5108
575,00;0,5054
575,50;0,5001
576,00;0,4947
576,50;0,4894
577,00;0,4842
577,50;0,4790
578,00;0,4739
578,50;0,4688
579,00;0,4638
579,50;0,4588
580,00;0,4538
580,50;0,4490
581,00;0,4441
581,50;0,4393
582,00;0,4346
582,50;0,4298
583,00;0,4252
583,50;0,4205
584,00;0,4159
584,50;0,4113
585,00;0,4068
585,50;0,4024
586,00;0,3981
586,50;0,3938
587,00;0,3896
587,50;0,3854
588,00;0,3812
588,50;0,3771
589,00;0,3730
589,50;0,3689
590,00;0,3649
590,50;0,3609
591,00;0,3569
591,50;0,3531
592,00;0,3492
592,50;0,3454
593,00;0,3417
593,50;0,3379
594,00;0,3342
594,50;0,3306
595,00;0,3271
595,50;0,3235
596,00;0,3200
596,50;0,3165
597,00;0,3131
597,50;0,3097
598,00;0,3063
598,50;0,3029
599,00;0,2996
599,50;0,2964
600,00;0,2933
600,50;0,2902
601,00;0,2870
601,50;0,2840
602,00;0,2809
602,50;0,2780
603,00;0,2750
603,50;0,2720
604,00;0,2691
604,50;0,2663
605,00;0,2635
605,50;0,2607
606,00;0,2579
606,50;0,2552
607,00;0,2525
607,50;0,2498
608,00;0,2472
608,50;0,2446
609,00;0,2421
609,50;0,2395
610,00;0,2370
610,50;0,2345
611,00;0,2321
611,50;0,2297
612,00;0,2273
612,50;0,2249
613,00;0,2225
613,50;0,2203
614,00;0,2180
614,50;0,2158
615,00;0,2136
615,50;0,2114
616,00;0,2093
616,50;0,2072
617,00;0,2051
617,50;0,2030
618,00;0,2010
618,50;0,1989
619,00;0,1970
619,50;0,1950
620,00;0,1931
620,50;0,1911
621,00;0,1893
621,50;0,1874
622,00;0,1855
622,50;0,1837
623,00;0,1819
623,50;0,1801
624,00;0,1784
624,50;0,1766
625,00;0,1749
625,50;0,1732
626,00;0,1715
626,50;0,1699
627,00;0,1682
627,50;0,1666
628,00;0,1650
628,50;0,1635
629,00;0,1620
629,50;0,1604
630,00;0,1589
630,50;0,1574
631,00;0,1560
631,50;0,1546
632,00;0,1531
632,50;0,1517
633,00;0,1503
633,50;0,1489
634,00;0,1476
634,50;0,1462
635,00;0,1449
635,50;0,1436
636,00;0,1423
636,50;0,1410
637,00;0,1397
637,50;0,1385
638,00;0,1372
638,50;0,1360
639,00;0,1348
639,50;0,1336
640,00;0,1324
640,50;0,1313
641,00;0,1301
641,50;0,1290
642,00;0,1278
642,50;0,1267
643,00;0,1256
643,50;0,1246
644,00;0,1235
644,50;0,1225
645,00;0,1214
645,50;0,1204
646,00;0,1194
646,50;0,1184
647,00;0,1174
647,50;0,1164
648,00;0,1154
648,50;0,1145
649,00;0,1135
649,50;0,1126
650,00;0,1117
650,50;0,1108
651,00;0,1098
651,50;0,1089
652,00;0,1081
652,50;0,1072
653,00;0,1063
653,50;0,1054
654,00;0,1046
654,50;0,1038
655,00;0,1029
655,50;0,1021
656,00;0,1013
656,50;0,1004
657,00;0,0996
657,50;0,0989
658,00;0,0981
658,50;0,0973
659,00;0,0966
659,50;0,0958
660,00;0,0951
660,50;0,0943
661,00;0,0936
661,50;0,0929
662,00;0,0921
662,50;0,0915
663,00;0,0908
663,50;0,0901
664,00;0,0894
664,50;0,0887
665,00;0,0881
665,50;0,0874
666,00;0,0867
666,50;0,0861
667,00;0,0854
667,50;0,0848
668,00;0,0841
668,50;0,0835
669,00;0,0829
669,50;0,0823
670,00;0,0817
670,50;0,0811
671,00;0,0804
671,50;0,0799
672,00;0,0793
672,50;0,0787
673,00;0,0781
673,50;0,0776
674,00;0,0770
674,50;0,0764
675,00;0,0759
675,50;0,0754
676,00;0,0748
676,50;0,0743
677,00;0,0738
677,50;0,0732
678,00;0,0727
678,50;0,0722
679,00;0,0717
679,50;0,0711
680,00;0,0706
680,50;0,0701
681,00;0,0696
681,50;0,0691
682,00;0,0687
682,50;0,0681
683,00;0,0677
683,50;0,0672
684,00;0,0667
684,50;0,0662
685,00;0,0658
685,50;0,0653
686,00;0,0649
686,50;0,0644
687,00;0,0640
687,50;0,0635
688,00;0,0631
688,50;0,0626
689,00;0,0622
689,50;0,0618
690,00;0,0614
690,50;0,0609
691,00;0,0605
691,50;0,0601
692,00;0,0597
692,50;0,0593
693,00;0,0589
693,50;0,0585
694,00;0,0581
694,50;0,0576
695,00;0,0572
695,50;0,0568
696,00;0,0565
696,50;0,0561
697,00;0,0557
697,50;0,0553
698,00;0,0549
698,50;0,0545
699,00;0,0542
699,50;0,0538
700,00;0,0534
700,50;0,0530
701,00;0,0526
701,50;0,0523
702,00;0,0519
702,50;0,0516
703,00;0,0512
703,50;0,0509
704,00;0,0505
704,50;0,0502
705,00;0,0498
705,50;0,0495
706,00;0,0492
706,50;0,0488
707,00;0,0485
707,50;0,0482
708,00;0,0478
708,50;0,0475
709,00;0,0472
709,50;0,0469
710,00;0,0466
710,50;0,0462
711,00;0,0459
711,50;0,0456
712,00;0,0453
712,50;0,0450
713,00;0,0447
713,50;0,0444
714,00;0,0441
714,50;0,0438
715,00;0,0435
715,50;0,0432
716,00;0,0429
716,50;0,0426
717,00;0,0424
717,50;0,0421
718,00;0,0418
718,50;0,0415
719,00;0,0412
719,50;0,0409
720,00;0,0406
720,50;0,0404
721,00;0,0401
721,50;0,0398
722,00;0,0395
722,50;0,0393
723,00;0,0390
723,50;0,0387
724,00;0,0384
724,50;0,0382
725,00;0,0379
725,50;0,0377
726,00;0,0374
726,50;0,0372
727,00;0,0369
727,50;0,0367
728,00;0,0364
728,50;0,0362
729,00;0,0359
729,50;0,0357
730,00;0,0354
730,50;0,0352
731,00;0,0349
731,50;0,0347
732,00;0,0345
732,50;0,0342
733,00;0,0340
733,50;0,0338
734,00;0,0336
734,50;0,0333
735,00;0,0331
735,50;0,0329
736,00;0,0326
736,50;0,0324
737,00;0,0322
737,50;0,0320
738,00;0,0318
738,50;0,0316
739,00;0,0313
739,50;0,0311
740,00;0,0309
740,50;0,0307
741,00;0,0305
741,50;0,0303
742,00;0,0301
742,50;0,0299
743,00;0,0297
743,50;0,0295
744,00;0,0293
744,50;0,0291
745,00;0,0289
745,50;0,0287
746,00;0,0285
746,50;0,0284
747,00;0,0282
747,50;0,0280
748,00;0,0278
748,50;0,0276
749,00;0,0274
749,50;0,0272
750,00;0,0271
750,50;0,0269
751,00;0,0267
751,50;0,0266
752,00;0,0264
752,50;0,0262
753,00;0,0260
753,50;0,0258
754,00;0,0257
754,50;0,0255
755,00;0,0253
755,50;0,0252
756,00;0,0250
756,50;0,0248
757,00;0,0247
757,50;0,0245
758,00;0,0243
758,50;0,0242
759,00;0,0240
759,50;0,0239
760,00;0,0237
760,50;0,0235
761,00;0,0234
761,50;0,0233
762,00;0,0231
762,50;0,0230
763,00;0,0228
763,50;0,0226
764,00;0,0225
764,50;0,0223
765,00;0,0222
765,50;0,0220
766,00;0,0219
766,50;0,0218
767,00;0,0216
767,50;0,0215
768,00;0,0213
768,50;0,0212
769,00;0,0211
769,50;0,0209
770,00;0,0208
770,50;0,0206
771,00;0,0205
771,50;0,0204
772,00;0,0202
772,50;0,0201
773,00;0,0200
773,50;0,0199
774,00;0,0197
774,50;0,0196
775,00;0,0195
775,50;0,0194
776,00;0,0192
776,50;0,0191
777,00;0,0190
777,50;0,0189
778,00;0,0187
778,50;0,0186
779,00;0,0185
779,50;0,0184
780,00;0,0183
780,50;0,0182
781,00;0,0180
781,50;0,0179
782,00;0,0178
782,50;0,0177
783,00;0,0176
783,50;0,0175
784,00;0,0174
784,50;0,0173
785,00;0,0172
785,50;0,0171
786,00;0,0170
786,50;0,0169
787,00;0,0168
787,50;0,0166
788,00;0,0165
788,50;0,0165
789,00;0,0163
789,50;0,0163
790,00;0,0162
790,50;0,0161
791,00;0,0160
791,50;0,0159
792,00;0,0158
792,50;0,0157
793,00;0,0156
793,50;0,0155
794,00;0,0154
794,50;0,0153
795,00;0,0152
795,50;0,0152
796,00;0,0150
796,50;0,0149
797,00;0,0149
797,50;0,0148
798,00;0,0147
798,50;0,0146
799,00;0,0145
799,50;0,0144
800,00;0,0143
800,50;0,0143
801,00;0,0142
801,50;0,0141
802,00;0,0141
802,50;0,0139
803,00;0,0139
803,50;0,0138
804,00;0,0137
804,50;0,0137
805,00;0,0135
805,50;0,0135
806,00;0,0134
806,50;0,0134
807,00;0,0132
807,50;0,0132
808,00;0,0131
808,50;0,0130
809,00;0,0130
809,50;0,0129
810,00;0,0128
810,50;0,0128
811,00;0,0127
811,50;0,0126
812,00;0,0125
812,50;0,0125
813,00;0,0124
813,50;0,0123
814,00;0,0123
814,50;0,0122
815,00;0,0121
815,50;0,0121
816,00;0,0120
816,50;0,0119
817,00;0,0119
817,50;0,0118
818,00;0,0117
818,50;0,0117
819,00;0,0116
819,50;0,0116
820,00;0,0115
820,50;0,0114
821,00;0,0113
821,50;0,0113
822,00;0,0113
822,50;0,0113
823,00;0,0112
823,50;0,0112
824,00;0,0112
824,50;0,0112
825,00;0,0112
825,50;0,0112
826,00;0,0111
826,50;0,0111
827,00;0,0111
827,50;0,0111
828,00;0,0111
828,50;0,0111
829,00;0,0111
829,50;0,0111
830,00;0,0111
830,50;0,0111
831,00;0,0111
831,50;0,0110
832,00;0,0110
832,50;0,0110
833,00;0,0109
833,50;0,0109
834,00;0,0109
834,50;0,0109
835,00;0,0108
835,50;0,0108
836,00;0,0107
836,50;0,0107
837,00;0,0106
837,50;0,0106
838,00;0,0105
838,50;0,0105
839,00;0,0104
839,50;0,0103
840,00;0,0103
840,50;0,0102
841,00;0,0102
841,50;0,0101
842,00;0,0100
842,50;0,0099
843,00;0,0099
843,50;0,0098
844,00;0,0098
844,50;0,0097
845,00;0,0096
845,50;0,0095
846,00;0,0094
846,50;0,0094
847,00;0,0093
847,50;0,0092
848,00;0,0092
848,50;0,0091
849,00;0,0091
849,50;0,0090
850,00;0,0089
