[nm];[A];
;Probe 1;
350,00;0,0715
350,50;0,0720
351,00;0,0724
351,50;0,0727
352,00;0,0730
352,50;0,0734
353,00;0,0737
353,50;0,0741
354,00;0,0745
354,50;0,0749
355,00;0,0755
355,50;0,0757
356,00;0,0761
356,50;0,0766
357,00;0,0772
357,50;0,0774
358,00;0,0778
358,50;0,0782
359,00;0,0788
359,50;0,0793
360,00;0,0799
360,50;0,0804
361,00;0,0808
361,50;0,0814
362,00;0,0816
362,50;0,0823
363,00;0,0826
363,50;0,0832
364,00;0,0836
364,50;0,0842
365,00;0,0847
365,50;0,0850
366,00;0,0852
366,50;0,0860
367,00;0,0864
367,50;0,0870
368,00;0,0874
368,50;0,0880
369,00;0,0884
369,50;0,0889
370,00;0,0892
370,50;0,0898
371,00;0,0905
371,50;0,0910
372,00;0,0913
372,50;0,0920
373,00;0,0923
373,50;0,0927
374,00;0,0934
374,50;0,0939
375,00;0,0946
375,50;0,0949
376,00;0,0957
376,50;0,0958
377,00;0,0964
377,50;0,0970
378,00;0,0976
378,50;0,0981
379,00;0,0987
379,50;0,0992
380,00;0,0999
380,50;0,1003
381,00;0,1007
381,50;0,1013
382,00;0,1019
382,50;0,1025
383,00;0,1031
383,50;0,1035
384,00;0,1042
384,50;0,1048
385,00;0,1052
385,50;0,1058
386,00;0,1065
386,50;0,1070
387,00;0,1075
387,50;0,1081
388,00;0,1088
388,50;0,1094
389,00;0,1099
389,50;0,1104
390,00;0,1110
390,50;0,1115
391,00;0,1121
391,50;0,1126
392,00;0,1133
392,50;0,1137
393,00;0,1145
393,50;0,1148
394,00;0,1155
394,50;0,1161
395,00;0,1166
395,50;0,1172
396,00;0,1178
396,50;0,1183
397,00;0,1189
397,50;0,1196
398,00;0,1201
398,50;0,1205
399,00;0,1210
399,50;0,1217
400,00;0,1221
400,50;0,1227
401,00;0,1232
401,50;0,1235
402,00;0,1242
402,50;0,1247
403,00;0,1251
403,50;0,1256
404,00;0,1260
404,50;0,1266
405,00;0,1270
405,50;0,1274
406,00;0,1278
406,50;0,1283
407,00;0,1287
407,50;0,1290
408,00;0,1295
408,50;0,1298
409,00;0,1303
409,50;0,1306
410,00;0,1310
410,50;0,1313
411,00;0,1318
411,50;0,1320
412,00;0,1322
412,50;0,1326
413,00;0,1330
413,50;0,1334
414,00;0,1336
414,50;0,1338
415,00;0,1341
415,50;0,1344
416,00;0,1347
416,50;0,1349
417,00;0,1351
417,50;0,1354
418,00;0,1356
418,50;0,1359
419,00;0,1361
419,50;0,1362
420,00;0,1365
420,50;0,1368
421,00;0,1370
421,50;0,1371
422,00;0,1373
422,50;0,1375
423,00;0,1376
423,50;0,1379
424,00;0,1381
424,50;0,1383
425,00;0,1385
425,50;0,1386
426,00;0,1388
426,50;0,1389
427,00;0,1391
427,50;0,1392
428,00;0,1395
428,50;0,1395
429,00;0,1398
429,50;0,1399
430,00;0,1401
430,50;0,1401
431,00;0,1403
431,50;0,1405
432,00;0,1406
432,50;0,1407
433,00;0,1409
433,50;0,1410
434,00;0,1410
434,50;0,1412
435,00;0,1413
435,50;0,1415
436,00;0,1416
436,50;0,1416
437,00;0,1418
437,50;0,1420
438,00;0,1420
438,50;0,1421
439,00;0,1421
439,50;0,1423
440,00;0,1424
440,50;0,1426
441,00;0,1425
441,50;0,1427
442,00;0,1426
442,50;0,1427
443,00;0,1428
443,50;0,1429
444,00;0,1429
444,50;0,1430
445,00;0,1430
445,50;0,1431
446,00;0,1431
446,50;0,1431
447,00;0,1432
447,50;0,1431
448,00;0,1433
448,50;0,1433
449,00;0,1433
449,50;0,1433
450,00;0,1432
450,50;0,1433
451,00;0,1433
451,50;0,1433
452,00;0,1432
452,50;0,1433
453,00;0,1434
453,50;0,1433
454,00;0,1433
454,50;0,1433
455,00;0,1432
455,50;0,1432
456,00;0,1431
456,50;0,1432
457,00;0,1433
457,50;0,1431
458,00;0,1431
458,50;0,1430
459,00;0,1430
459,50;0,1430
460,00;0,1430
460,50;0,1429
461,00;0,1429
461,50;0,1429
462,00;0,1428
462,50;0,1429
463,00;0,1427
463,50;0,1427
464,00;0,1427
464,50;0,1426
465,00;0,1427
465,50;0,1426
466,00;0,1425
466,50;0,1425
467,00;0,1425
467,50;0,1425
468,00;0,1424
468,50;0,1424
469,00;0,1424
469,50;0,1423
470,00;0,1421
470,50;0,1422
471,00;0,1422
471,50;0,1422
472,00;0,1421
472,50;0,1422
473,00;0,1421
473,50;0,1421
474,00;0,1421
474,50;0,1422
475,00;0,1422
475,50;0,1422
476,00;0,1422
476,50;0,1422
477,00;0,1422
477,50;0,1422
478,00;0,1423
478,50;0,1423
479,00;0,1424
479,50;0,1424
480,00;0,1424
480,50;0,1425
481,00;0,1425
481,50;0,1426
482,00;0,1427
482,50;0,1427
483,00;0,1428
483,50;0,1429
484,00;0,1430
484,50;0,1430
485,00;0,1431
485,50;0,1432
486,00;0,1432
486,50;0,1433
487,00;0,1434
487,50;0,1435
488,00;0,1436
488,50;0,1437
489,00;0,1438
489,50;0,1439
490,00;0,1440
490,50;0,1441
491,00;0,1442
491,50;0,1444
492,00;0,1445
492,50;0,1447
493,00;0,1447
493,50;0,1449
494,00;0,1450
494,50;0,1451
495,00;0,1453
495,50;0,1454
496,00;0,1456
496,50;0,1457
497,00;0,1459
497,50;0,1460
498,00;0,1462
498,50;0,1463
499,00;0,1465
499,50;0,1466
500,00;0,1468
500,50;0,1470
501,00;0,1472
501,50;0,1474
502,00;0,1476
502,50;0,1477
503,00;0,1480
503,50;0,1482
504,00;0,1484
504,50;0,1486
505,00;0,1488
505,50;0,1491
506,00;0,1493
506,50;0,1495
507,00;0,1497
507,50;0,1499
508,00;0,1501
508,50;0,1503
509,00;0,1505
509,50;0,1507
510,00;0,1508
510,50;0,1510
511,00;0,1512
511,50;0,1514
512,00;0,1515
512,50;0,1517
513,00;0,1519
513,50;0,1521
514,00;0,1522
514,50;0,1524
515,00;0,1525
515,50;0,1527
516,00;0,1529
516,50;0,1530
517,00;0,1532
517,50;0,1534
518,00;0,1536
518,50;0,1537
519,00;0,1539
519,50;0,1541
520,00;0,1543
520,50;0,1545
521,00;0,1546
521,50;0,1548
522,00;0,1550
522,50;0,1552
523,00;0,1554
523,50;0,1555
524,00;0,1557
524,50;0,1559
525,00;0,1560
525,50;0,1561
526,00;0,1563
526,50;0,1564
527,00;0,1566
527,50;0,1567
528,00;0,1568
528,50;0,1569
529,00;0,1570
529,50;0,1572
530,00;0,1573
530,50;0,1574
531,00;0,1575
531,50;0,1575
532,00;0,1576
532,50;0,1577
533,00;0,1578
533,50;0,1578
534,00;0,1579
534,50;0,1580
535,00;0,1580
535,50;0,1581
536,00;0,1581
536,50;0,1582
537,00;0,1582
537,50;0,1582
538,00;0,1582
538,50;0,1582
539,00;0,1583
539,50;0,1583
540,00;0,1583
540,50;0,1583
541,00;0,1583
541,50;0,1583
542,00;0,1583
542,50;0,1583
543,00;0,1582
543,50;0,1582
544,00;0,1581
544,50;0,1581
545,00;0,1581
545,50;0,1580
546,00;0,1580
546,50;0,1580
547,00;0,1579
547,50;0,1578
548,00;0,1577
548,50;0,1576
549,00;0,1575
549,50;0,1575
550,00;0,1573
550,50;0,1572
551,00;0,1572
551,50;0,1570
552,00;0,1569
552,50;0,1568
553,00;0,1566
553,50;0,1565
554,00;0,1564
554,50;0,1563
555,00;0,1561
555,50;0,1560
556,00;0,1558
556,50;0,1557
557,00;0,1555
557,50;0,1553
558,00;0,1551
558,50;0,1550
559,00;0,1548
559,50;0,1546
560,00;0,1544
560,50;0,1541
561,00;0,1540
561,50;0,1537
562,00;0,1535
562,50;0,1533
563,00;0,1530
563,50;0,1528
564,00;0,1525
564,50;0,1523
565,00;0,1521
565,50;0,1518
566,00;0,1515
566,50;0,1512
567,00;0,1510
567,50;0,1507
568,00;0,1504
568,50;0,1501
569,00;0,1497
569,50;0,1494
570,00;0,1491
570,50;0,1488
571,00;0,1485
571,50;0,1481
572,00;0,1479
572,50;0,1475
573,00;0,1472
573,50;0,1468
574,00;0,1465
574,50;0,1461
575,00;0,1458
575,50;0,1454
576,00;0,1450
576,50;0,1446
577,00;0,1442
577,50;0,1438
578,00;0,1434
578,50;0,1430
579,00;0,1427
579,50;0,1422
580,00;0,1419
580,50;0,1415
581,00;0,1410
581,50;0,1406
582,00;0,1402
582,50;0,1397
583,00;0,1393
583,50;0,1389
584,00;0,1384
584,50;0,1379
585,00;0,1375
585,50;0,1370
586,00;0,1366
586,50;0,1361
587,00;0,1356
587,50;0,1352
588,00;0,1347
588,50;0,1342
589,00;0,1337
589,50;0,1333
590,00;0,1328
590,50;0,1323
591,00;0,1318
591,50;0,1313
592,00;0,1308
592,50;0,1303
593,00;0,1298
593,50;0,1292
594,00;0,1287
594,50;0,1282
595,00;0,1277
595,50;0,1272
596,00;0,1267
596,50;0,1261
597,00;0,1256
597,50;0,1251
598,00;0,1246
598,50;0,1240
599,00;0,1235
599,50;0,1229
600,00;0,1224
600,50;0,1218
601,00;0,1213
601,50;0,1208
602,00;0,1202
602,50;0,1197
603,00;0,1191
603,50;0,1186
604,00;0,1180
604,50;0,1175
605,00;0,1169
605,50;0,1164
606,00;0,1158
606,50;0,1152
607,00;0,1147
607,50;0,1141
608,00;0,1135
608,50;0,1130
609,00;0,1124
609,50;0,1119
610,00;0,1113
610,50;0,1107
611,00;0,1102
611,50;0,1096
612,00;0,1090
612,50;0,1085
613,00;0,1079
613,50;0,1073
614,00;0,1068
614,50;0,1062
615,00;0,1057
615,50;0,1051
616,00;0,1045
616,50;0,1040
617,00;0,1034
617,50;0,1028
618,00;0,1023
618,50;0,1017
619,00;0,1012
619,50;0,1006
620,00;0,1001
620,50;0,0995
621,00;0,0989
621,50;0,0984
622,00;0,0978
622,50;0,0972
623,00;0,0967
623,50;0,0961
624,00;0,0955
624,50;0,0950
625,00;0,0944
625,50;0,0938
626,00;0,0933
626,50;0,0927
627,00;0,0922
627,50;0,0916
628,00;0,0911
628,50;0,0905
629,00;0,0900
629,50;0,0895
630,00;0,0889
630,50;0,0884
631,00;0,0878
631,50;0,0873
632,00;0,0868
632,50;0,0863
633,00;0,0858
633,50;0,0853
634,00;0,0848
634,50;0,0842
635,00;0,0838
635,50;0,0832
636,00;0,0827
636,50;0,0822
637,00;0,0817
637,50;0,0812
638,00;0,0807
638,50;0,0802
639,00;0,0797
639,50;0,0792
640,00;0,0787
640,50;0,0782
641,00;0,0777
641,50;0,0772
642,00;0,0767
642,50;0,0762
643,00;0,0757
643,50;0,0753
644,00;0,0748
644,50;0,0743
645,00;0,0738
645,50;0,0734
646,00;0,0729
646,50;0,0724
647,00;0,0720
647,50;0,0715
648,00;0,0710
648,50;0,0706
649,00;0,0702
649,50;0,0697
650,00;0,0693
650,50;0,0688
651,00;0,0684
651,50;0,0680
652,00;0,0675
652,50;0,0670
653,00;0,0666
653,50;0,0662
654,00;0,0657
654,50;0,0653
655,00;0,0649
655,50;0,0644
656,00;0,0640
656,50;0,0636
657,00;0,0632
657,50;0,0628
658,00;0,0624
658,50;0,0620
659,00;0,0616
659,50;0,0612
660,00;0,0608
660,50;0,0604
661,00;0,0600
661,50;0,0597
662,00;0,0592
662,50;0,0588
663,00;0,0584
663,50;0,0581
664,00;0,0577
664,50;0,0573
665,00;0,0569
665,50;0,0566
666,00;0,0562
666,50;0,0558
667,00;0,0554
667,50;0,0551
668,00;0,0547
668,50;0,0543
669,00;0,0540
669,50;0,0536
670,00;0,0533
670,50;0,0529
671,00;0,0525
671,50;0,0522
672,00;0,0519
672,50;0,0515
673,00;0,0512
673,50;0,0508
674,00;0,0505
674,50;0,0502
675,00;0,0499
675,50;0,0495
676,00;0,0492
676,50;0,0489
677,00;0,0486
677,50;0,0482
678,00;0,0479
678,50;0,0476
679,00;0,0473
679,50;0,0470
680,00;0,0467
680,50;0,0464
681,00;0,0461
681,50;0,0458
682,00;0,0455
682,50;0,0452
683,00;0,0449
683,50;0,0446
684,00;0,0443
684,50;0,0440
685,00;0,0437
685,50;0,0434
686,00;0,0431
686,50;0,0429
687,00;0,0426
687,50;0,0423
688,00;0,0420
688,50;0,0417
689,00;0,0415
689,50;0,0412
690,00;0,0409
690,50;0,0406
691,00;0,0404
691,50;0,0401
692,00;0,0399
692,50;0,0396
693,00;0,0393
693,50;0,0391
694,00;0,0388
694,50;0,0386
695,00;0,0383
695,50;0,0381
696,00;0,0379
696,50;0,0376
697,00;0,0374
697,50;0,0371
698,00;0,0369
698,50;0,0366
699,00;0,0364
699,50;0,0362
700,00;0,0359
700,50;0,0357
701,00;0,0355
701,50;0,0353
702,00;0,0350
702,50;0,0348
703,00;0,0346
703,50;0,0344
704,00;0,0342
704,50;0,0340
705,00;0,0337
705,50;0,0335
706,00;0,0333
706,50;0,0331
707,00;0,0329
707,50;0,0327
708,00;0,0325
708,50;0,0323
709,00;0,0321
709,50;0,0319
710,00;0,0317
710,50;0,0315
711,00;0,0313
711,50;0,0310
712,00;0,0309
712,50;0,0307
713,00;0,0305
713,50;0,0303
714,00;0,0301
714,50;0,0300
715,00;0,0298
715,50;0,0296
716,00;0,0294
716,50;0,0293
717,00;0,0291
717,50;0,0289
718,00;0,0288
718,50;0,0286
719,00;0,0284
719,50;0,0283
720,00;0,0281
720,50;0,0280
721,00;0,0279
721,50;0,0277
722,00;0,0276
722,50;0,0274
723,00;0,0272
723,50;0,0271
724,00;0,0269
724,50;0,0268
725,00;0,0266
725,50;0,0264
726,00;0,0263
726,50;0,0262
727,00;0,0260
727,50;0,0259
728,00;0,0258
728,50;0,0256
729,00;0,0255
729,50;0,0253
730,00;0,0252
730,50;0,0250
731,00;0,0248
731,50;0,0246
732,00;0,0244
732,50;0,0242
733,00;0,0240
733,50;0,0238
734,00;0,0236
734,50;0,0234
735,00;0,0232
735,50;0,0230
736,00;0,0228
736,50;0,0226
737,00;0,0224
737,50;0,0223
738,00;0,0221
738,50;0,0219
739,00;0,0218
739,50;0,0216
740,00;0,0215
740,50;0,0214
741,00;0,0213
741,50;0,0212
742,00;0,0212
742,50;0,0211
743,00;0,0211
743,50;0,0211
744,00;0,0210
744,50;0,0210
745,00;0,0210
745,50;0,0210
746,00;0,0210
746,50;0,0209
747,00;0,0209
747,50;0,0208
748,00;0,0207
748,50;0,0207
749,00;0,0206
749,50;0,0205
750,00;0,0204
750,50;0,0203
751,00;0,0202
751,50;0,0202
752,00;0,0201
752,50;0,0200
753,00;0,0199
753,50;0,0198
754,00;0,0197
754,50;0,0196
755,00;0,0195
755,50;0,0195
756,00;0,0194
756,50;0,0193
757,00;0,0192
757,50;0,0192
758,00;0,0191
758,50;0,0190
759,00;0,0189
759,50;0,0188
760,00;0,0188
760,50;0,0187
761,00;0,0186
761,50;0,0185
762,00;0,0184
762,50;0,0184
763,00;0,0183
763,50;0,0182
764,00;0,0182
764,50;0,0181
765,00;0,0180
765,50;0,0179
766,00;0,0179
766,50;0,0178
767,00;0,0177
767,50;0,0176
768,00;0,0175
768,50;0,0174
769,00;0,0174
769,50;0,0173
770,00;0,0172
770,50;0,0171
771,00;0,0171
771,50;0,0170
772,00;0,0169
772,50;0,0168
773,00;0,0167
773,50;0,0167
774,00;0,0166
774,50;0,0166
775,00;0,0165
775,50;0,0164
776,00;0,0163
776,50;0,0162
777,00;0,0162
777,50;0,0161
778,00;0,0160
778,50;0,0159
779,00;0,0159
779,50;0,0158
780,00;0,0157
780,50;0,0156
781,00;0,0156
781,50;0,0155
782,00;0,0154
782,50;0,0153
783,00;0,0152
783,50;0,0152
784,00;0,0151
784,50;0,0150
785,00;0,0149
785,50;0,0149
786,00;0,0148
786,50;0,0147
787,00;0,0146
787,50;0,0146
788,00;0,0145
788,50;0,0144
789,00;0,0144
789,50;0,0143
790,00;0,0142
790,50;0,0142
791,00;0,0141
791,50;0,0140
792,00;0,0140
792,50;0,0139
793,00;0,0138
793,50;0,0137
794,00;0,0137
794,50;0,0136
795,00;0,0136
795,50;0,0135
796,00;0,0134
796,50;0,0133
797,00;0,0133
797,50;0,0132
798,00;0,0131
798,50;0,0131
799,00;0,0130
799,50;0,0129
800,00;0,0128
800,50;0,0127
801,00;0,0127
801,50;0,0126
802,00;0,0125
802,50;0,0125
803,00;0,0124
803,50;0,0123
804,00;0,0122
804,50;0,0122
805,00;0,0121
805,50;0,0120
806,00;0,0120
806,50;0,0119
807,00;0,0119
807,50;0,0118
808,00;0,0118
808,50;0,0117
809,00;0,0117
809,50;0,0116
810,00;0,0116
810,50;0,0115
811,00;0,0115
811,50;0,0115
812,00;0,0114
812,50;0,0114
813,00;0,0114
813,50;0,0114
814,00;0,0114
814,50;0,0113
815,00;0,0113
815,50;0,0113
816,00;0,0113
816,50;0,0113
817,00;0,0112
817,50;0,0112
818,00;0,0112
818,50;0,0111
819,00;0,0111
819,50;0,0111
820,00;0,0111
820,50;0,0111
821,00;0,0110
821,50;0,0110
822,00;0,0110
822,50;0,0110
823,00;0,0110
823,50;0,0109
824,00;0,0110
824,50;0,0110
825,00;0,0109
825,50;0,0109
826,00;0,0109
826,50;0,0109
827,00;0,0109
827,50;0,0109
828,00;0,0109
828,50;0,0108
829,00;0,0108
829,50;0,0108
830,00;0,0107
830,50;0,0107
831,00;0,0106
831,50;0,0106
832,00;0,0105
832,50;0,0105
833,00;0,0105
833,50;0,0104
834,00;0,0104
834,50;0,0104
835,00;0,0103
835,50;0,0103
836,00;0,0103
836,50;0,0103
837,00;0,0102
837,50;0,0102
838,00;0,0102
838,50;0,0102
839,00;0,0102
839,50;0,0102
840,00;0,0102
840,50;0,0102
841,00;0,0103
841,50;0,0103
842,00;0,0103
842,50;0,0104
843,00;0,0104
843,50;0,0104
844,00;0,0104
844,50;0,0103
845,00;0,0103
845,50;0,0103
846,00;0,0102
846,50;0,0102
847,00;0,0102
847,50;0,0103
848,00;0,0103
848,50;0,0104
849,00;0,0104
849,50;0,0104
850,00;0,0105
