[nm];[A];
;Probe 1;
350,00;0,2801
350,50;0,2829
351,00;0,2859
351,50;0,2887
352,00;0,2916
352,50;0,2944
353,00;0,2973
353,50;0,3000
354,00;0,3032
354,50;0,3061
355,00;0,3089
355,50;0,3117
356,00;0,3146
356,50;0,3176
357,00;0,3206
357,50;0,3236
358,00;0,3265
358,50;0,3296
359,00;0,3325
359,50;0,3358
360,00;0,3387
360,50;0,3420
361,00;0,3454
361,50;0,3484
362,00;0,3514
362,50;0,3548
363,00;0,3582
363,50;0,3612
364,00;0,3646
364,50;0,3680
365,00;0,3712
365,50;0,3749
366,00;0,3781
366,50;0,3816
367,00;0,3848
367,50;0,3885
368,00;0,3920
368,50;0,3958
369,00;0,3992
369,50;0,4029
370,00;0,4070
370,50;0,4111
371,00;0,4147
371,50;0,4189
372,00;0,4226
372,50;0,4266
373,00;0,4307
373,50;0,4351
374,00;0,4392
374,50;0,4437
375,00;0,4483
375,50;0,4529
376,00;0,4579
376,50;0,4627
377,00;0,4679
377,50;0,4731
378,00;0,4784
378,50;0,4840
379,00;0,4899
379,50;0,4960
380,00;0,5019
380,50;0,5084
381,00;0,5151
381,50;0,5221
382,00;0,5291
382,50;0,5365
383,00;0,5440
383,50;0,5520
384,00;0,5597
384,50;0,5679
385,00;0,5765
385,50;0,5850
386,00;0,5941
386,50;0,6031
387,00;0,6124
387,50;0,6218
388,00;0,6310
388,50;0,6412
389,00;0,6509
389,50;0,6609
390,00;0,6704
390,50;0,6806
391,00;0,6908
391,50;0,7007
392,00;0,7100
392,50;0,7199
393,00;0,7296
393,50;0,7391
394,00;0,7480
394,50;0,7571
395,00;0,7657
395,50;0,7741
396,00;0,7821
396,50;0,7896
397,00;0,7968
397,50;0,8035
398,00;0,8096
398,50;0,8156
399,00;0,8207
399,50;0,8255
400,00;0,8299
400,50;0,8336
401,00;0,8371
401,50;0,8396
402,00;0,8424
402,50;0,8443
403,00;0,8458
403,50;0,8468
404,00;0,8478
404,50;0,8481
405,00;0,8482
405,50;0,8477
406,00;0,8468
406,50;0,8460
407,00;0,8449
407,50;0,8436
408,00;0,8418
408,50;0,8401
409,00;0,8380
409,50;0,8357
410,00;0,8333
410,50;0,8310
411,00;0,8282
411,50;0,8252
412,00;0,8226
412,50;0,8194
413,00;0,8165
413,50;0,8136
414,00;0,8104
414,50;0,8072
415,00;0,8041
415,50;0,8006
416,00;0,7972
416,50;0,7937
417,00;0,7903
417,50;0,7867
418,00;0,7831
418,50;0,7798
419,00;0,7763
419,50;0,7725
420,00;0,7688
420,50;0,7652
421,00;0,7612
421,50;0,7576
422,00;0,7537
422,50;0,7495
423,00;0,7457
423,50;0,7415
424,00;0,7374
424,50;0,7335
425,00;0,7291
425,50;0,7249
426,00;0,7205
426,50;0,7160
427,00;0,7117
427,50;0,7071
428,00;0,7025
428,50;0,6977
429,00;0,6930
429,50;0,6882
430,00;0,6832
430,50;0,6786
431,00;0,6736
431,50;0,6686
432,00;0,6636
432,50;0,6587
433,00;0,6536
433,50;0,6484
434,00;0,6432
434,50;0,6380
435,00;0,6330
435,50;0,6274
436,00;0,6224
436,50;0,6169
437,00;0,6115
437,50;0,6063
438,00;0,6009
438,50;0,5956
439,00;0,5903
439,50;0,5852
440,00;0,5798
440,50;0,5747
441,00;0,5696
441,50;0,5643
442,00;0,5594
442,50;0,5544
443,00;0,5493
443,50;0,5445
444,00;0,5395
444,50;0,5347
445,00;0,5299
445,50;0,5253
446,00;0,5207
446,50;0,5162
447,00;0,5118
447,50;0,5073
448,00;0,5031
448,50;0,4989
449,00;0,4947
449,50;0,4907
450,00;0,4867
450,50;0,4829
451,00;0,4789
451,50;0,4753
452,00;0,4716
452,50;0,4680
453,00;0,4648
453,50;0,4613
454,00;0,4581
454,50;0,4549
455,00;0,4517
455,50;0,4486
456,00;0,4457
456,50;0,4428
457,00;0,4400
457,50;0,4370
458,00;0,4343
458,50;0,4316
459,00;0,4289
459,50;0,4262
460,00;0,4235
460,50;0,4210
461,00;0,4184
461,50;0,4159
462,00;0,4132
462,50;0,4107
463,00;0,4082
463,50;0,4056
464,00;0,4030
464,50;0,4006
465,00;0,3980
465,50;0,3955
466,00;0,3929
466,50;0,3904
467,00;0,3879
467,50;0,3854
468,00;0,3830
468,50;0,3807
469,00;0,3784
469,50;0,3761
470,00;0,3741
470,50;0,3718
471,00;0,3697
471,50;0,3677
472,00;0,3658
472,50;0,3639
473,00;0,3622
473,50;0,3605
474,00;0,3589
474,50;0,3573
475,00;0,3560
475,50;0,3546
476,00;0,3533
476,50;0,3521
477,00;0,3509
477,50;0,3499
478,00;0,3489
478,50;0,3479
479,00;0,3471
479,50;0,3462
480,00;0,3455
480,50;0,3448
481,00;0,3442
481,50;0,3436
482,00;0,3430
482,50;0,3426
483,00;0,3421
483,50;0,3418
484,00;0,3414
484,50;0,3411
485,00;0,3409
485,50;0,3406
486,00;0,3405
486,50;0,3404
487,00;0,3402
487,50;0,3401
488,00;0,3400
488,50;0,3400
489,00;0,3400
489,50;0,3400
490,00;0,3401
490,50;0,3402
491,00;0,3402
491,50;0,3404
492,00;0,3404
492,50;0,3407
493,00;0,3407
493,50;0,3409
494,00;0,3411
494,50;0,3413
495,00;0,3415
495,50;0,3417
496,00;0,3418
496,50;0,3421
497,00;0,3423
497,50;0,3425
498,00;0,3427
498,50;0,3429
499,00;0,3431
499,50;0,3434
500,00;0,3436
500,50;0,3439
501,00;0,3443
501,50;0,3446
502,00;0,3450
502,50;0,3453
503,00;0,3458
503,50;0,3462
504,00;0,3465
504,50;0,3470
505,00;0,3475
505,50;0,3479
506,00;0,3484
506,50;0,3488
507,00;0,3493
507,50;0,3496
508,00;0,3500
508,50;0,3503
509,00;0,3507
509,50;0,3509
510,00;0,3511
510,50;0,3514
511,00;0,3516
511,50;0,3518
512,00;0,3520
512,50;0,3521
513,00;0,3523
513,50;0,3524
514,00;0,3526
514,50;0,3528
515,00;0,3530
515,50;0,3533
516,00;0,3536
516,50;0,3539
517,00;0,3542
517,50;0,3546
518,00;0,3550
518,50;0,3554
519,00;0,3558
519,50;0,3563
520,00;0,3567
520,50;0,3572
521,00;0,3577
521,50;0,3582
522,00;0,3587
522,50;0,3592
523,00;0,3597
523,50;0,3602
524,00;0,3607
524,50;0,3612
525,00;0,3618
525,50;0,3622
526,00;0,3627
526,50;0,3632
527,00;0,3638
527,50;0,3642
528,00;0,3647
528,50;0,3651
529,00;0,3656
529,50;0,3660
530,00;0,3665
530,50;0,3669
531,00;0,3673
531,50;0,3678
532,00;0,3682
532,50;0,3686
533,00;0,3691
533,50;0,3694
534,00;0,3698
534,50;0,3702
535,00;0,3706
535,50;0,3710
536,00;0,3714
536,50;0,3718
537,00;0,3722
537,50;0,3726
538,00;0,3730
538,50;0,3734
539,00;0,3737
539,50;0,3741
540,00;0,3746
540,50;0,3750
541,00;0,3753
541,50;0,3757
542,00;0,3761
542,50;0,3765
543,00;0,3769
543,50;0,3773
544,00;0,3777
544,50;0,3781
545,00;0,3785
545,50;0,3790
546,00;0,3793
546,50;0,3797
547,00;0,3802
547,50;0,3806
548,00;0,3810
548,50;0,3814
549,00;0,3818
549,50;0,3823
550,00;0,3827
550,50;0,3831
551,00;0,3836
551,50;0,3840
552,00;0,3844
552,50;0,3849
553,00;0,3853
553,50;0,3858
554,00;0,3863
554,50;0,3868
555,00;0,3872
555,50;0,3877
556,00;0,3882
556,50;0,3887
557,00;0,3892
557,50;0,3897
558,00;0,3902
558,50;0,3907
559,00;0,3912
559,50;0,3917
560,00;0,3922
560,50;0,3927
561,00;0,3932
561,50;0,3938
562,00;0,3943
562,50;0,3949
563,00;0,3955
563,50;0,3960
564,00;0,3966
564,50;0,3972
565,00;0,3978
565,50;0,3984
566,00;0,3990
566,50;0,3996
567,00;0,4002
567,50;0,4009
568,00;0,4015
568,50;0,4022
569,00;0,4028
569,50;0,4035
570,00;0,4042
570,50;0,4049
571,00;0,4056
571,50;0,4063
572,00;0,4070
572,50;0,4077
573,00;0,4085
573,50;0,4092
574,00;0,4100
574,50;0,4107
575,00;0,4116
575,50;0,4124
576,00;0,4131
576,50;0,4140
577,00;0,4148
577,50;0,4157
578,00;0,4165
578,50;0,4174
579,00;0,4183
579,50;0,4192
580,00;0,4201
580,50;0,4210
581,00;0,4220
581,50;0,4229
582,00;0,4238
582,50;0,4249
583,00;0,4258
583,50;0,4269
584,00;0,4279
584,50;0,4290
585,00;0,4300
585,50;0,4311
586,00;0,4322
586,50;0,4332
587,00;0,4344
587,50;0,4355
588,00;0,4366
588,50;0,4378
589,00;0,4389
589,50;0,4401
590,00;0,4414
590,50;0,4426
591,00;0,4439
591,50;0,4452
592,00;0,4464
592,50;0,4478
593,00;0,4491
593,50;0,4504
594,00;0,4518
594,50;0,4531
595,00;0,4546
595,50;0,4560
596,00;0,4574
596,50;0,4589
597,00;0,4604
597,50;0,4619
598,00;0,4635
598,50;0,4650
599,00;0,4666
599,50;0,4682
600,00;0,4698
600,50;0,4714
601,00;0,4730
601,50;0,4747
602,00;0,4763
602,50;0,4781
603,00;0,4798
603,50;0,4816
604,00;0,4833
604,50;0,4852
605,00;0,4870
605,50;0,4888
606,00;0,4907
606,50;0,4926
607,00;0,4945
607,50;0,4965
608,00;0,4984
608,50;0,5005
609,00;0,5024
609,50;0,5044
610,00;0,5066
610,50;0,5086
611,00;0,5107
611,50;0,5129
612,00;0,5151
612,50;0,5172
613,00;0,5194
613,50;0,5217
614,00;0,5239
614,50;0,5262
615,00;0,5284
615,50;0,5308
616,00;0,5331
616,50;0,5354
617,00;0,5378
617,50;0,5403
618,00;0,5428
618,50;0,5452
619,00;0,5478
619,50;0,5503
620,00;0,5529
620,50;0,5554
621,00;0,5580
621,50;0,5607
622,00;0,5633
622,50;0,5660
623,00;0,5687
623,50;0,5715
624,00;0,5743
624,50;0,5771
625,00;0,5799
625,50;0,5827
626,00;0,5856
626,50;0,5886
627,00;0,5915
627,50;0,5944
628,00;0,5973
628,50;0,6004
629,00;0,6033
629,50;0,6064
630,00;0,6094
630,50;0,6125
631,00;0,6156
631,50;0,6188
632,00;0,6220
632,50;0,6252
633,00;0,6285
633,50;0,6317
634,00;0,6350
634,50;0,6382
635,00;0,6416
635,50;0,6449
636,00;0,6483
636,50;0,6517
637,00;0,6551
637,50;0,6585
638,00;0,6619
638,50;0,6655
639,00;0,6690
639,50;0,6726
640,00;0,6762
640,50;0,6799
641,00;0,6835
641,50;0,6871
642,00;0,6907
642,50;0,6944
643,00;0,6981
643,50;0,7018
644,00;0,7055
644,50;0,7093
645,00;0,7131
645,50;0,7168
646,00;0,7207
646,50;0,7245
647,00;0,7284
647,50;0,7323
648,00;0,7361
648,50;0,7401
649,00;0,7440
649,50;0,7479
650,00;0,7519
650,50;0,7559
651,00;0,7599
651,50;0,7640
652,00;0,7681
652,50;0,7722
653,00;0,7762
653,50;0,7804
654,00;0,7845
654,50;0,7887
655,00;0,7929
655,50;0,7971
656,00;0,8012
656,50;0,8054
657,00;0,8096
657,50;0,8138
658,00;0,8181
658,50;0,8222
659,00;0,8265
659,50;0,8307
660,00;0,8350
660,50;0,8393
661,00;0,8436
661,50;0,8480
662,00;0,8522
662,50;0,8565
663,00;0,8608
663,50;0,8652
664,00;0,8695
664,50;0,8739
665,00;0,8782
665,50;0,8826
666,00;0,8871
666,50;0,8914
667,00;0,8959
667,50;0,9002
668,00;0,9047
668,50;0,9091
669,00;0,9135
669,50;0,9180
670,00;0,9224
670,50;0,9268
671,00;0,9311
671,50;0,9356
672,00;0,9400
672,50;0,9444
673,00;0,9488
673,50;0,9531
674,00;0,9576
674,50;0,9619
675,00;0,9663
675,50;0,9707
676,00;0,9750
676,50;0,9794
677,00;0,9838
677,50;0,9881
678,00;0,9925
678,50;0,9967
679,00;1,0010
679,50;1,0054
680,00;1,0098
680,50;1,0142
681,00;1,0185
681,50;1,0229
682,00;1,0272
682,50;1,0314
683,00;1,0357
683,50;1,0400
684,00;1,0442
684,50;1,0485
685,00;1,0528
685,50;1,0569
686,00;1,0611
686,50;1,0652
687,00;1,0693
687,50;1,0734
688,00;1,0775
688,50;1,0816
689,00;1,0856
689,50;1,0897
690,00;1,0938
690,50;1,0977
691,00;1,1017
691,50;1,1056
692,00;1,1095
692,50;1,1135
693,00;1,1174
693,50;1,1213
694,00;1,1252
694,50;1,1292
695,00;1,1330
695,50;1,1368
696,00;1,1408
696,50;1,1444
697,00;1,1482
697,50;1,1520
698,00;1,1557
698,50;1,1593
699,00;1,1630
699,50;1,1666
700,00;1,1698
700,50;1,1740
701,00;1,1774
701,50;1,1810
702,00;1,1845
702,50;1,1879
703,00;1,1914
703,50;1,1948
704,00;1,1983
704,50;1,2014
705,00;1,2049
705,50;1,2082
706,00;1,2114
706,50;1,2148
707,00;1,2179
707,50;1,2211
708,00;1,2244
708,50;1,2276
709,00;1,2308
709,50;1,2340
710,00;1,2371
710,50;1,2401
711,00;1,2434
711,50;1,2463
712,00;1,2493
712,50;1,2523
713,00;1,2552
713,50;1,2580
714,00;1,2608
714,50;1,2635
715,00;1,2663
715,50;1,2689
716,00;1,2715
716,50;1,2740
717,00;1,2765
717,50;1,2791
718,00;1,2816
718,50;1,2837
719,00;1,2862
719,50;1,2884
720,00;1,2907
720,50;1,2929
721,00;1,2950
721,50;1,2973
722,00;1,2995
722,50;1,3015
723,00;1,3036
723,50;1,3057
724,00;1,3077
724,50;1,3099
725,00;1,3119
725,50;1,3139
726,00;1,3160
726,50;1,3179
727,00;1,3197
727,50;1,3216
728,00;1,3236
728,50;1,3252
729,00;1,3269
729,50;1,3287
730,00;1,3304
730,50;1,3320
731,00;1,3337
731,50;1,3352
732,00;1,3369
732,50;1,3384
733,00;1,3400
733,50;1,3415
734,00;1,3430
734,50;1,3442
735,00;1,3459
735,50;1,3473
736,00;1,3488
736,50;1,3502
737,00;1,3516
737,50;1,3532
738,00;1,3543
738,50;1,3560
739,00;1,3572
739,50;1,3587
740,00;1,3600
740,50;1,3614
741,00;1,3627
741,50;1,3640
742,00;1,3654
742,50;1,3668
743,00;1,3679
743,50;1,3692
744,00;1,3703
744,50;1,3716
745,00;1,3729
745,50;1,3739
746,00;1,3751
746,50;1,3763
747,00;1,3775
747,50;1,3786
748,00;1,3796
748,50;1,3807
749,00;1,3817
749,50;1,3828
750,00;1,3840
750,50;1,3849
751,00;1,3859
751,50;1,3871
752,00;1,3880
752,50;1,3889
753,00;1,3897
753,50;1,3908
754,00;1,3918
754,50;1,3927
755,00;1,3936
755,50;1,3944
756,00;1,3953
756,50;1,3963
757,00;1,3969
757,50;1,3979
758,00;1,3984
758,50;1,3994
759,00;1,4001
759,50;1,4008
760,00;1,4016
760,50;1,4023
761,00;1,4028
761,50;1,4037
762,00;1,4041
762,50;1,4050
763,00;1,4056
763,50;1,4063
764,00;1,4068
764,50;1,4076
765,00;1,4080
765,50;1,4088
766,00;1,4093
766,50;1,4099
767,00;1,4104
767,50;1,4109
768,00;1,4117
768,50;1,4121
769,00;1,4126
769,50;1,4131
770,00;1,4136
770,50;1,4142
771,00;1,4147
771,50;1,4152
772,00;1,4157
772,50;1,4163
773,00;1,4165
773,50;1,4172
774,00;1,4174
774,50;1,4181
775,00;1,4185
775,50;1,4189
776,00;1,4192
776,50;1,4196
777,00;1,4202
777,50;1,4206
778,00;1,4210
778,50;1,4216
779,00;1,4220
779,50;1,4222
780,00;1,4225
780,50;1,4230
781,00;1,4233
781,50;1,4239
782,00;1,4244
782,50;1,4247
783,00;1,4249
783,50;1,4252
784,00;1,4256
784,50;1,4261
785,00;1,4262
785,50;1,4265
786,00;1,4271
786,50;1,4273
787,00;1,4278
787,50;1,4279
788,00;1,4284
788,50;1,4288
789,00;1,4289
789,50;1,4292
790,00;1,4296
790,50;1,4298
791,00;1,4300
791,50;1,4303
792,00;1,4305
792,50;1,4309
793,00;1,4311
793,50;1,4313
794,00;1,4318
794,50;1,4319
795,00;1,4319
795,50;1,4324
796,00;1,4323
796,50;1,4326
797,00;1,4329
797,50;1,4332
798,00;1,4331
798,50;1,4334
799,00;1,4336
799,50;1,4338
800,00;1,4338
800,50;1,4340
801,00;1,4341
801,50;1,4343
802,00;1,4345
802,50;1,4346
803,00;1,4348
803,50;1,4347
804,00;1,4348
804,50;1,4349
805,00;1,4350
805,50;1,4349
806,00;1,4351
806,50;1,4353
807,00;1,4353
807,50;1,4352
808,00;1,4351
808,50;1,4353
809,00;1,4351
809,50;1,4351
810,00;1,4351
810,50;1,4350
811,00;1,4348
811,50;1,4348
812,00;1,4348
812,50;1,4347
813,00;1,4347
813,50;1,4347
814,00;1,4345
814,50;1,4343
815,00;1,4341
815,50;1,4341
816,00;1,4339
816,50;1,4336
817,00;1,4335
817,50;1,4330
818,00;1,4329
818,50;1,4325
819,00;1,4322
819,50;1,4319
820,00;1,4316
820,50;1,4308
821,00;1,4302
821,50;1,4298
822,00;1,4298
822,50;1,4303
823,00;1,4317
823,50;1,4330
824,00;1,4347
824,50;1,4367
825,00;1,4386
825,50;1,4412
826,00;1,4433
826,50;1,4459
827,00;1,4488
827,50;1,4513
828,00;1,4543
828,50;1,4571
829,00;1,4598
829,50;1,4626
830,00;1,4652
830,50;1,4674
831,00;1,4696
831,50;1,4714
832,00;1,4730
832,50;1,4742
833,00;1,4750
833,50;1,4759
834,00;1,4761
834,50;1,4762
835,00;1,4762
835,50;1,4757
836,00;1,4751
836,50;1,4740
837,00;1,4729
837,50;1,4715
838,00;1,4699
838,50;1,4679
839,00;1,4656
839,50;1,4632
840,00;1,4606
840,50;1,4578
841,00;1,4548
841,50;1,4518
842,00;1,4486
842,50;1,4452
843,00;1,4417
843,50;1,4383
844,00;1,4349
844,50;1,4313
845,00;1,4277
845,50;1,4242
846,00;1,4207
846,50;1,4171
847,00;1,4136
847,50;1,4100
848,00;1,4065
848,50;1,4029
849,00;1,3996
849,50;1,3959
850,00;1,3925
