[nm];[A];
;Probe 1;
350,00;0,3480
350,50;0,3518
351,00;0,3560
351,50;0,3599
352,00;0,3642
352,50;0,3685
353,00;0,3728
353,50;0,3773
354,00;0,3819
354,50;0,3866
355,00;0,3912
355,50;0,3962
356,00;0,4010
356,50;0,4060
357,00;0,4113
357,50;0,4162
358,00;0,4213
358,50;0,4268
359,00;0,4318
359,50;0,4374
360,00;0,4430
360,50;0,4482
361,00;0,4546
361,50;0,4597
362,00;0,4660
362,50;0,4716
363,00;0,4776
363,50;0,4834
364,00;0,4896
364,50;0,4957
365,00;0,5020
365,50;0,5087
366,00;0,5150
366,50;0,5215
367,00;0,5281
367,50;0,5356
368,00;0,5422
368,50;0,5499
369,00;0,5573
369,50;0,5648
370,00;0,5716
370,50;0,5801
371,00;0,5879
371,50;0,5961
372,00;0,6040
372,50;0,6120
373,00;0,6205
373,50;0,6290
374,00;0,6379
374,50;0,6463
375,00;0,6553
375,50;0,6643
376,00;0,6735
376,50;0,6829
377,00;0,6920
377,50;0,7016
378,00;0,7115
378,50;0,7209
379,00;0,7304
379,50;0,7407
380,00;0,7507
380,50;0,7607
381,00;0,7713
381,50;0,7813
382,00;0,7913
382,50;0,8019
383,00;0,8114
383,50;0,8222
384,00;0,8320
384,50;0,8421
385,00;0,8521
385,50;0,8620
386,00;0,8723
386,50;0,8812
387,00;0,8911
387,50;0,9002
388,00;0,9094
388,50;0,9182
389,00;0,9262
389,50;0,9345
390,00;0,9418
390,50;0,9492
391,00;0,9566
391,50;0,9627
392,00;0,9685
392,50;0,9743
393,00;0,9792
393,50;0,9838
394,00;0,9873
394,50;0,9908
395,00;0,9937
395,50;0,9957
396,00;0,9970
396,50;0,9979
397,00;0,9983
397,50;0,9985
398,00;0,9976
398,50;0,9961
399,00;0,9944
399,50;0,9914
400,00;0,9884
400,50;0,9847
401,00;0,9808
401,50;0,9766
402,00;0,9717
402,50;0,9670
403,00;0,9616
403,50;0,9558
404,00;0,9506
404,50;0,9442
405,00;0,9377
405,50;0,9313
406,00;0,9248
406,50;0,9180
407,00;0,9103
407,50;0,9035
408,00;0,8968
408,50;0,8892
409,00;0,8822
409,50;0,8744
410,00;0,8672
410,50;0,8599
411,00;0,8522
411,50;0,8449
412,00;0,8372
412,50;0,8297
413,00;0,8221
413,50;0,8147
414,00;0,8070
414,50;0,7995
415,00;0,7917
415,50;0,7839
416,00;0,7763
416,50;0,7689
417,00;0,7611
417,50;0,7536
418,00;0,7460
418,50;0,7385
419,00;0,7308
419,50;0,7234
420,00;0,7158
420,50;0,7083
421,00;0,7009
421,50;0,6936
422,00;0,6862
422,50;0,6789
423,00;0,6718
423,50;0,6645
424,00;0,6574
424,50;0,6504
425,00;0,6435
425,50;0,6367
426,00;0,6296
426,50;0,6231
427,00;0,6165
427,50;0,6101
428,00;0,6040
428,50;0,5977
429,00;0,5914
429,50;0,5856
430,00;0,5796
430,50;0,5737
431,00;0,5681
431,50;0,5625
432,00;0,5570
432,50;0,5516
433,00;0,5464
433,50;0,5412
434,00;0,5361
434,50;0,5311
435,00;0,5260
435,50;0,5212
436,00;0,5163
436,50;0,5118
437,00;0,5072
437,50;0,5025
438,00;0,4982
438,50;0,4938
439,00;0,4897
439,50;0,4855
440,00;0,4814
440,50;0,4776
441,00;0,4737
441,50;0,4701
442,00;0,4665
442,50;0,4630
443,00;0,4596
443,50;0,4563
444,00;0,4533
444,50;0,4503
445,00;0,4473
445,50;0,4443
446,00;0,4418
446,50;0,4392
447,00;0,4369
447,50;0,4345
448,00;0,4320
448,50;0,4299
449,00;0,4280
449,50;0,4260
450,00;0,4242
450,50;0,4225
451,00;0,4207
451,50;0,4191
452,00;0,4177
452,50;0,4164
453,00;0,4150
453,50;0,4139
454,00;0,4127
454,50;0,4117
455,00;0,4107
455,50;0,4098
456,00;0,4090
456,50;0,4083
457,00;0,4075
457,50;0,4070
458,00;0,4064
458,50;0,4060
459,00;0,4056
459,50;0,4050
460,00;0,4047
460,50;0,4043
461,00;0,4039
461,50;0,4038
462,00;0,4035
462,50;0,4032
463,00;0,4030
463,50;0,4030
464,00;0,4029
464,50;0,4027
465,00;0,4026
465,50;0,4024
466,00;0,4027
466,50;0,4026
467,00;0,4025
467,50;0,4025
468,00;0,4024
468,50;0,4026
469,00;0,4027
469,50;0,4026
470,00;0,4024
470,50;0,4026
471,00;0,4027
471,50;0,4028
472,00;0,4030
472,50;0,4031
473,00;0,4032
473,50;0,4035
474,00;0,4037
474,50;0,4038
475,00;0,4041
475,50;0,4044
476,00;0,4046
476,50;0,4049
477,00;0,4053
477,50;0,4056
478,00;0,4061
478,50;0,4065
479,00;0,4070
479,50;0,4074
480,00;0,4079
480,50;0,4085
481,00;0,4091
481,50;0,4097
482,00;0,4103
482,50;0,4111
483,00;0,4118
483,50;0,4125
484,00;0,4134
484,50;0,4143
485,00;0,4152
485,50;0,4162
486,00;0,4173
486,50;0,4183
487,00;0,4194
487,50;0,4206
488,00;0,4218
488,50;0,4231
489,00;0,4244
489,50;0,4258
490,00;0,4272
490,50;0,4287
491,00;0,4302
491,50;0,4318
492,00;0,4334
492,50;0,4352
493,00;0,4369
493,50;0,4388
494,00;0,4407
494,50;0,4427
495,00;0,4447
495,50;0,4468
496,00;0,4488
496,50;0,4510
497,00;0,4533
497,50;0,4555
498,00;0,4579
498,50;0,4604
499,00;0,4629
499,50;0,4655
500,00;0,4682
500,50;0,4710
501,00;0,4739
501,50;0,4770
502,00;0,4801
502,50;0,4833
503,00;0,4867
503,50;0,4901
504,00;0,4937
504,50;0,4974
505,00;0,5012
505,50;0,5050
506,00;0,5089
506,50;0,5129
507,00;0,5169
507,50;0,5209
508,00;0,5250
508,50;0,5291
509,00;0,5331
509,50;0,5373
510,00;0,5414
510,50;0,5455
511,00;0,5497
511,50;0,5539
512,00;0,5581
512,50;0,5624
513,00;0,5667
513,50;0,5711
514,00;0,5757
514,50;0,5803
515,00;0,5849
515,50;0,5898
516,00;0,5948
516,50;0,5998
517,00;0,6050
517,50;0,6103
518,00;0,6157
518,50;0,6213
519,00;0,6270
519,50;0,6328
520,00;0,6387
520,50;0,6447
521,00;0,6508
521,50;0,6570
522,00;0,6633
522,50;0,6696
523,00;0,6761
523,50;0,6825
524,00;0,6891
524,50;0,6956
525,00;0,7023
525,50;0,7090
526,00;0,7158
526,50;0,7226
527,00;0,7294
527,50;0,7363
528,00;0,7433
528,50;0,7502
529,00;0,7571
529,50;0,7641
530,00;0,7712
530,50;0,7781
531,00;0,7852
531,50;0,7921
532,00;0,7992
532,50;0,8063
533,00;0,8135
533,50;0,8207
534,00;0,8278
534,50;0,8351
535,00;0,8425
535,50;0,8498
536,00;0,8571
536,50;0,8644
537,00;0,8716
537,50;0,8791
538,00;0,8863
538,50;0,8937
539,00;0,9010
539,50;0,9085
540,00;0,9157
540,50;0,9231
541,00;0,9306
541,50;0,9380
542,00;0,9453
542,50;0,9526
543,00;0,9601
543,50;0,9674
544,00;0,9746
544,50;0,9818
545,00;0,9890
545,50;0,9961
546,00;1,0033
546,50;1,0105
547,00;1,0176
547,50;1,0247
548,00;1,0317
548,50;1,0387
549,00;1,0458
549,50;1,0526
550,00;1,0597
550,50;1,0665
551,00;1,0732
551,50;1,0799
552,00;1,0865
552,50;1,0930
553,00;1,0996
553,50;1,1059
554,00;1,1123
554,50;1,1185
555,00;1,1248
555,50;1,1309
556,00;1,1371
556,50;1,1430
557,00;1,1488
557,50;1,1546
558,00;1,1602
558,50;1,1657
559,00;1,1712
559,50;1,1768
560,00;1,1819
560,50;1,1870
561,00;1,1924
561,50;1,1974
562,00;1,2023
562,50;1,2073
563,00;1,2120
563,50;1,2167
564,00;1,2212
564,50;1,2258
565,00;1,2302
565,50;1,2344
566,00;1,2387
566,50;1,2427
567,00;1,2467
567,50;1,2509
568,00;1,2545
568,50;1,2584
569,00;1,2620
569,50;1,2656
570,00;1,2692
570,50;1,2725
571,00;1,2757
571,50;1,2790
572,00;1,2820
572,50;1,2850
573,00;1,2881
573,50;1,2910
574,00;1,2937
574,50;1,2964
575,00;1,2991
575,50;1,3019
576,00;1,3043
576,50;1,3065
577,00;1,3090
577,50;1,3113
578,00;1,3135
578,50;1,3158
579,00;1,3179
579,50;1,3200
580,00;1,3220
580,50;1,3239
581,00;1,3257
581,50;1,3277
582,00;1,3293
582,50;1,3312
583,00;1,3329
583,50;1,3342
584,00;1,3360
584,50;1,3376
585,00;1,3391
585,50;1,3406
586,00;1,3419
586,50;1,3430
587,00;1,3445
587,50;1,3458
588,00;1,3469
588,50;1,3480
589,00;1,3493
589,50;1,3503
590,00;1,3514
590,50;1,3525
591,00;1,3534
591,50;1,3542
592,00;1,3552
592,50;1,3563
593,00;1,3571
593,50;1,3579
594,00;1,3586
594,50;1,3593
595,00;1,3601
595,50;1,3606
596,00;1,3614
596,50;1,3620
597,00;1,3626
597,50;1,3631
598,00;1,3637
598,50;1,3644
599,00;1,3650
599,50;1,3654
600,00;1,3659
600,50;1,3663
601,00;1,3668
601,50;1,3671
602,00;1,3674
602,50;1,3679
603,00;1,3682
603,50;1,3685
604,00;1,3687
604,50;1,3692
605,00;1,3695
605,50;1,3701
606,00;1,3703
606,50;1,3703
607,00;1,3707
607,50;1,3706
608,00;1,3710
608,50;1,3710
609,00;1,3711
609,50;1,3713
610,00;1,3714
610,50;1,3715
611,00;1,3714
611,50;1,3715
612,00;1,3715
612,50;1,3716
613,00;1,3715
613,50;1,3715
614,00;1,3714
614,50;1,3715
615,00;1,3711
615,50;1,3711
616,00;1,3711
616,50;1,3710
617,00;1,3710
617,50;1,3707
618,00;1,3705
618,50;1,3702
619,00;1,3702
619,50;1,3701
620,00;1,3699
620,50;1,3696
621,00;1,3693
621,50;1,3693
622,00;1,3688
622,50;1,3685
623,00;1,3682
623,50;1,3679
624,00;1,3678
624,50;1,3670
625,00;1,3668
625,50;1,3664
626,00;1,3661
626,50;1,3656
627,00;1,3652
627,50;1,3646
628,00;1,3641
628,50;1,3637
629,00;1,3631
629,50;1,3626
630,00;1,3622
630,50;1,3616
631,00;1,3609
631,50;1,3604
632,00;1,3597
632,50;1,3591
633,00;1,3584
633,50;1,3577
634,00;1,3570
634,50;1,3562
635,00;1,3554
635,50;1,3549
636,00;1,3540
636,50;1,3530
637,00;1,3523
637,50;1,3514
638,00;1,3505
638,50;1,3494
639,00;1,3486
639,50;1,3476
640,00;1,3465
640,50;1,3455
641,00;1,3444
641,50;1,3434
642,00;1,3422
642,50;1,3410
643,00;1,3399
643,50;1,3387
644,00;1,3374
644,50;1,3361
645,00;1,3347
645,50;1,3333
646,00;1,3320
646,50;1,3306
647,00;1,3289
647,50;1,3276
648,00;1,3261
648,50;1,3245
649,00;1,3230
649,50;1,3214
650,00;1,3195
650,50;1,3180
651,00;1,3162
651,50;1,3144
652,00;1,3124
652,50;1,3106
653,00;1,3087
653,50;1,3067
654,00;1,3047
654,50;1,3026
655,00;1,3004
655,50;1,2982
656,00;1,2960
656,50;1,2937
657,00;1,2914
657,50;1,2891
658,00;1,2867
658,50;1,2842
659,00;1,2819
659,50;1,2794
660,00;1,2769
660,50;1,2742
661,00;1,2715
661,50;1,2688
662,00;1,2660
662,50;1,2631
663,00;1,2603
663,50;1,2574
664,00;1,2546
664,50;1,2515
665,00;1,2483
665,50;1,2452
666,00;1,2418
666,50;1,2386
667,00;1,2354
667,50;1,2321
668,00;1,2286
668,50;1,2251
669,00;1,2215
669,50;1,2180
670,00;1,2145
670,50;1,2107
671,00;1,2070
671,50;1,2032
672,00;1,1996
672,50;1,1956
673,00;1,1918
673,50;1,1877
674,00;1,1839
674,50;1,1797
675,00;1,1757
675,50;1,1715
676,00;1,1672
676,50;1,1631
677,00;1,1587
677,50;1,1544
678,00;1,1501
678,50;1,1456
679,00;1,1410
679,50;1,1364
680,00;1,1320
680,50;1,1273
681,00;1,1226
681,50;1,1178
682,00;1,1130
682,50;1,1081
683,00;1,1033
683,50;1,0982
684,00;1,0934
684,50;1,0884
685,00;1,0834
685,50;1,0784
686,00;1,0734
686,50;1,0683
687,00;1,0632
687,50;1,0580
688,00;1,0528
688,50;1,0476
689,00;1,0423
689,50;1,0370
690,00;1,0317
690,50;1,0264
691,00;1,0210
691,50;1,0156
692,00;1,0103
692,50;1,0047
693,00;0,9992
693,50;0,9937
694,00;0,9881
694,50;0,9826
695,00;0,9770
695,50;0,9713
696,00;0,9658
696,50;0,9601
697,00;0,9544
697,50;0,9486
698,00;0,9429
698,50;0,9373
699,00;0,9316
699,50;0,9259
700,00;0,9214
700,50;0,9145
701,00;0,9089
701,50;0,9031
702,00;0,8975
702,50;0,8917
703,00;0,8860
703,50;0,8802
704,00;0,8745
704,50;0,8687
705,00;0,8631
705,50;0,8573
706,00;0,8515
706,50;0,8459
707,00;0,8400
707,50;0,8342
708,00;0,8285
708,50;0,8228
709,00;0,8169
709,50;0,8111
710,00;0,8054
710,50;0,7996
711,00;0,7938
711,50;0,7881
712,00;0,7823
712,50;0,7767
713,00;0,7710
713,50;0,7653
714,00;0,7597
714,50;0,7541
715,00;0,7485
715,50;0,7428
716,00;0,7372
716,50;0,7316
717,00;0,7260
717,50;0,7203
718,00;0,7148
718,50;0,7092
719,00;0,7036
719,50;0,6981
720,00;0,6926
720,50;0,6871
721,00;0,6815
721,50;0,6760
722,00;0,6705
722,50;0,6650
723,00;0,6595
723,50;0,6541
724,00;0,6487
724,50;0,6433
725,00;0,6379
725,50;0,6325
726,00;0,6272
726,50;0,6219
727,00;0,6168
727,50;0,6116
728,00;0,6065
728,50;0,6014
729,00;0,5963
729,50;0,5912
730,00;0,5861
730,50;0,5811
731,00;0,5761
731,50;0,5712
732,00;0,5662
732,50;0,5613
733,00;0,5564
733,50;0,5516
734,00;0,5468
734,50;0,5420
735,00;0,5372
735,50;0,5324
736,00;0,5276
736,50;0,5228
737,00;0,5182
737,50;0,5135
738,00;0,5088
738,50;0,5041
739,00;0,4995
739,50;0,4950
740,00;0,4904
740,50;0,4860
741,00;0,4816
741,50;0,4772
742,00;0,4729
742,50;0,4686
743,00;0,4643
743,50;0,4600
744,00;0,4558
744,50;0,4515
745,00;0,4473
745,50;0,4431
746,00;0,4390
746,50;0,4350
747,00;0,4309
747,50;0,4269
748,00;0,4229
748,50;0,4190
749,00;0,4150
749,50;0,4110
750,00;0,4071
750,50;0,4032
751,00;0,3994
751,50;0,3955
752,00;0,3917
752,50;0,3879
753,00;0,3842
753,50;0,3805
754,00;0,3768
754,50;0,3732
755,00;0,3696
755,50;0,3661
756,00;0,3627
756,50;0,3592
757,00;0,3558
757,50;0,3523
758,00;0,3489
758,50;0,3455
759,00;0,3422
759,50;0,3389
760,00;0,3357
760,50;0,3324
761,00;0,3292
761,50;0,3261
762,00;0,3229
762,50;0,3198
763,00;0,3167
763,50;0,3136
764,00;0,3105
764,50;0,3074
765,00;0,3044
765,50;0,3014
766,00;0,2984
766,50;0,2955
767,00;0,2926
767,50;0,2897
768,00;0,2869
768,50;0,2841
769,00;0,2814
769,50;0,2787
770,00;0,2760
770,50;0,2733
771,00;0,2706
771,50;0,2680
772,00;0,2654
772,50;0,2629
773,00;0,2603
773,50;0,2578
774,00;0,2553
774,50;0,2529
775,00;0,2505
775,50;0,2481
776,00;0,2457
776,50;0,2433
777,00;0,2410
777,50;0,2386
778,00;0,2363
778,50;0,2340
779,00;0,2318
779,50;0,2295
780,00;0,2273
780,50;0,2251
781,00;0,2229
781,50;0,2208
782,00;0,2187
782,50;0,2166
783,00;0,2145
783,50;0,2125
784,00;0,2105
784,50;0,2085
785,00;0,2066
785,50;0,2046
786,00;0,2027
786,50;0,2008
787,00;0,1989
787,50;0,1971
788,00;0,1953
788,50;0,1935
789,00;0,1916
789,50;0,1899
790,00;0,1881
790,50;0,1864
791,00;0,1846
791,50;0,1830
792,00;0,1812
792,50;0,1796
793,00;0,1779
793,50;0,1762
794,00;0,1746
794,50;0,1730
795,00;0,1714
795,50;0,1698
796,00;0,1683
796,50;0,1668
797,00;0,1653
797,50;0,1638
798,00;0,1623
798,50;0,1609
799,00;0,1595
799,50;0,1580
800,00;0,1566
800,50;0,1552
801,00;0,1538
801,50;0,1525
802,00;0,1512
802,50;0,1498
803,00;0,1485
803,50;0,1473
804,00;0,1460
804,50;0,1447
805,00;0,1434
805,50;0,1422
806,00;0,1410
806,50;0,1397
807,00;0,1385
807,50;0,1374
808,00;0,1362
808,50;0,1350
809,00;0,1338
809,50;0,1327
810,00;0,1316
810,50;0,1305
811,00;0,1294
811,50;0,1283
812,00;0,1273
812,50;0,1262
813,00;0,1252
813,50;0,1242
814,00;0,1232
814,50;0,1222
815,00;0,1211
815,50;0,1202
816,00;0,1192
816,50;0,1183
817,00;0,1174
817,50;0,1164
818,00;0,1155
818,50;0,1146
819,00;0,1137
819,50;0,1128
820,00;0,1119
820,50;0,1110
821,00;0,1101
821,50;0,1092
822,00;0,1084
822,50;0,1076
823,00;0,1068
823,50;0,1060
824,00;0,1053
824,50;0,1046
825,00;0,1039
825,50;0,1032
826,00;0,1026
826,50;0,1019
827,00;0,1013
827,50;0,1006
828,00;0,1000
828,50;0,0994
829,00;0,0988
829,50;0,0982
830,00;0,0976
830,50;0,0970
831,00;0,0964
831,50;0,0958
832,00;0,0952
832,50;0,0946
833,00;0,0939
833,50;0,0933
834,00;0,0927
834,50;0,0921
835,00;0,0914
835,50;0,0908
836,00;0,0901
836,50;0,0895
837,00;0,0889
837,50;0,0882
838,00;0,0876
838,50;0,0870
839,00;0,0864
839,50;0,0858
840,00;0,0851
840,50;0,0845
841,00;0,0839
841,50;0,0833
842,00;0,0827
842,50;0,0821
843,00;0,0815
843,50;0,0809
844,00;0,0803
844,50;0,0797
845,00;0,0792
845,50;0,0786
846,00;0,0781
846,50;0,0775
847,00;0,0770
847,50;0,0764
848,00;0,0759
848,50;0,0754
849,00;0,0748
849,50;0,0743
850,00;0,0738
